AF3,F7,F3,F5,T7,P7,O1,O2,P8,T8,FC6,F4,F8,AF4,ID_all_events,EventId
0.7761030835063067,0.18856529216018192,0.5414478886376628,0.7984075323152133,0.65360142713768,0.4015022436299702,0.5687417064418199,0.6522699416778295,0.8518745669394541,0.1795695572560696,0.6160289015891784,0.3536996617703263,0.6472094254682297,0.42258079625656997,1.0,left
0.7953292247810566,0.18359356244862024,0.514563079180764,0.7294421311928296,0.6953225623950487,0.36541517878894325,0.6133976902227971,0.5723551621735226,0.847572051911083,0.17016120486691833,0.5855259711122152,0.34974963789765745,0.6395128472758973,0.4310487676214958,2.0,left
0.6195055088780279,0.15909061707746286,0.43091923748627536,0.6083115431176189,0.668773186767595,0.2857155129708744,0.554644056721429,0.4967631018286198,0.8451117998461974,0.15645129172240857,0.5610047220202752,0.32999751242772746,0.6257210579770831,0.4008057933580531,3.0,left
0.5192313728767388,0.15802553624283,0.4032863636102135,0.6321834048638912,0.5688976520128932,0.3789485440042526,0.5193909815321902,0.5637179497721334,0.870926890016424,0.17338673554903394,0.5897126925084564,0.3191986406620728,0.6250797782516031,0.37903232618142724,4.0,left
0.5810427631234774,0.17311790072904465,0.43241252197232427,0.7064525416679501,0.5372926281429997,0.49774205279975803,0.5922467401978508,0.6382283020881374,0.8776873162416372,0.17822579943353212,0.5861250503977331,0.30998158394151787,0.6183445089049577,0.3903229546679956,5.0,left
0.5247245560979437,0.1690340765005871,0.41224891487993887,0.671087568885369,0.534764804021286,0.4150356088441072,0.6274998153880063,0.5453577039817432,0.8125386243188046,0.1462366846396499,0.49521533825189223,0.28759544052094554,0.5827455444801046,0.3620963834515756,6.0,left
0.4835152187333236,0.16459522532720694,0.4010450147050051,0.6215725660482825,0.5676361474038245,0.3548885917112159,0.6745009320113624,0.4740842498375386,0.7461586359292696,0.1505377334875284,0.45035956146472245,0.29049225843467497,0.5625397364401685,0.36088623447885837,7.0,left
0.5329695625328128,0.1727628737842588,0.40627293258289043,0.6427942436788108,0.6156744355127017,0.4090220525701085,0.7132806573528754,0.5021593031003491,0.7271039719842527,0.19327947040078897,0.46172156708194834,0.3002369211879934,0.5663886362788677,0.3717745037892186,8.0,left
0.49450681677826225,0.16406234678902543,0.3823746920986686,0.6374871405455664,0.5840694116428082,0.4150356088441072,0.6368982485349335,0.47732114800849246,0.7092806045054623,0.20080656183826306,0.42165159097700666,0.27943058670593324,0.5558050778360553,0.34999950089038734,9.0,left
0.4024724556093062,0.1551846444422642,0.35698316712839784,0.5764790266721711,0.5094817479064915,0.3052624344601824,0.5475907564168736,0.45356470094638013,0.7019045300473792,0.18844091842398036,0.3971292029511808,0.25836145226057816,0.5493904483521508,0.3306447959373049,10.0,left
0.37912381111819826,0.16281941436113456,0.3562351027092383,0.540228414216628,0.48419387688810644,0.19849603821267436,0.5358427149836729,0.505400314230009,0.7092806045054623,0.19408623700208594,0.42823007378024514,0.2575710462647276,0.5638229066339129,0.3157252562544741,11.0,left
0.3997258639992438,0.16104427963679324,0.366690938465009,0.5393461419952352,0.43742190829089367,0.20902262529040172,0.5499403647040637,0.519437840860995,0.6803919549055202,0.18628988209224673,0.42823007378024514,0.2652092971003732,0.556446357561537,0.3310486908354022,12.0,left
0.2994517279979547,0.14879280695128383,0.329350293252336,0.5013242501951503,0.36788748534472404,0.17744572765516153,0.5099880729404447,0.505400314230009,0.6490477349763104,0.1758065234450239,0.3875598794549653,0.2557284373633344,0.5282233314665277,0.3306447959373049,13.0,left
0.2046707752189434,0.14417610418450622,0.2845403812565692,0.44385532756064805,0.36788748534472404,0.06165613339813092,0.42068281854525225,0.49568139379888265,0.6478176089438676,0.1868273852213882,0.36782329211136755,0.2357120073503225,0.5230912614338319,0.3108877318076999,14.0,left
0.2376377219499517,0.1422231178669069,0.2785672433112154,0.4067190754328358,0.34639616541101503,0.0060164198731058605,0.36427879333015056,0.44168647741532396,0.6355245416578406,0.18575237896331664,0.36064573002261113,0.22465083714817702,0.525978241684312,0.3104838369096026,15.0,left
0.1771970117080599,0.13121457760928834,0.2374905425311482,0.3439430496650857,0.3514518136534548,0.0451131264484772,0.41950801440211194,0.40064943611278636,0.6238471226051701,0.1779570478690662,0.3510764065263956,0.2146428729049692,0.5214880621198823,0.2907252370581084,16.0,left
0.11675891726742549,0.12588782095280227,0.22703470677537751,0.3006191059080763,0.4070783890300689,0.07819627674985696,0.4688632147565599,0.3909305156824985,0.6367534972564997,0.177150281267771,0.3672253517597355,0.22702105208253975,0.5243744316275762,0.30322601451739395,17.0,left
0.16895462107444814,0.13654133426563586,0.2822990323513608,0.3253749236011778,0.2996193819112065,0.11428620518881871,0.414806560105788,0.3606920463610521,0.643515093915493,0.16612890758371712,0.3773926156075831,0.2523040134168415,0.5256576018213206,0.3286283928899678,18.0,left
0.24999999999973,0.14666196904028794,0.31217325513263106,0.3351018064692681,0.2060682223618997,0.19398587100688047,0.38425493921196363,0.34881382282999596,0.6422861383168339,0.16370963159541674,0.3755976556183356,0.25177741043726876,0.526619521409792,0.3245971225178135,19.0,left
0.3282987873138694,0.14701699598521145,0.32785700876629065,0.3138818125641798,0.31226090996811706,0.24060238652356958,0.4383093561398681,0.4071273454142528,0.6699446618848128,0.17607527500969944,0.37858849631084723,0.2501970999721621,0.5400894493605506,0.3294346469645877,20.0,left
0.37637198790453397,0.14790490146817792,0.3502619647638845,0.3359857624161009,0.3881148932170859,0.22105260143632677,0.47003578117774936,0.4967631018286198,0.7068226933086237,0.1822580967167351,0.3767946752554856,0.2504604014620515,0.537523719715594,0.32217682457237906,21.0,left
0.4024724556093062,0.15216590104830097,0.37714677422078324,0.3607432638346424,0.3312244057811,0.15187952269598526,0.4500596352959363,0.525919863120329,0.6883836775969563,0.17284923241989425,0.365430391770488,0.2515141089475854,0.5234125120391067,0.34395182747089414,22.0,left
0.3983499523918752,0.14825992841310232,0.39133724336839393,0.35190033691338485,0.309733085847391,0.09172964196516631,0.4430085727133317,0.4589650151768154,0.6398270566862116,0.1682794320075498,0.3773926156075831,0.2720561388867715,0.5432970694737698,0.3774198180325019,23.0,left
0.4134640536553178,0.14648411744702994,0.39731038131374774,0.3678149114106688,0.34260442922894185,0.11127942705122962,0.4512344394390766,0.38768950455283147,0.6213880409745478,0.1755372599728684,0.3905507201479459,0.2752167598167805,0.5602946466579528,0.36250027834967113,24.0,left
0.40521904722044866,0.15163369875184962,0.3898439588817624,0.3625111757289936,0.3160550536014881,0.18045250579157113,0.474734997751213,0.38337089835214044,0.6201590853758887,0.17419350215033091,0.308014450794591,0.23518540437075153,0.515073432635976,0.333871347957043,25.0,left
0.26236227804843537,0.14293317175661624,0.3218810264692422,0.32979638706146375,0.23387910259841505,0.22556563224005544,0.504111814501897,0.38337089835214044,0.6158565703475176,0.16666641071285682,0.21650679829711805,0.19752426385908528,0.466645209243314,0.28790334779741045,26.0,left
0.24725340838859466,0.13547557718927283,0.29350293252629456,0.3978761485115747,0.16940514279827568,0.20902262529040172,0.5088155065192623,0.3963287734331544,0.6244616004042598,0.15913983118307407,0.27811059960314566,0.21543277737422528,0.49166122596788675,0.29032287788190025,27.0,left
0.33241605892877146,0.14488615807421557,0.3532485337365614,0.5243138397193441,0.18078275879481964,0.10676925984661523,0.4606351103079547,0.41900762542424275,0.6404415344853014,0.15456951886304182,0.374401774914606,0.24940719550311208,0.537523719715594,0.3306447959373049,28.0,left
0.35714061502725514,0.1551846444422642,0.4182220528252927,0.5605644521748872,0.155499702680018,0.08270644395565085,0.42185762268838545,0.3963287734331544,0.6724025730816514,0.1731179839843584,0.4138749496022669,0.26415609114143557,0.5551631873677927,0.3375002591533054,29.0,left
0.43406610653636335,0.153231658124664,0.4331577420397892,0.5508392530322368,0.12010053517675345,0.16842252964564608,0.4735624313300235,0.41900762542424275,0.7068226933086237,0.2026883346976316,0.4730858505674149,0.2831178106155132,0.578575394035882,0.3600799804042385,30.0,left
0.4574199826310732,0.14932500924759662,0.42494325518922693,0.5526071649258988,0.20227407872852865,0.19849603821267436,0.4817882980557613,0.46112431827673817,0.698830970617184,0.204300844084635,0.5376793536320683,0.2947060853236234,0.60519522081694,0.36088623447885837,31.0,left
0.46565975746234045,0.15305380653126832,0.4548174779704972,0.5083992652220566,0.28318371021993727,0.18646606206556982,0.4735624313300235,0.4719249467367703,0.720959193992396,0.19704301611952602,0.5747607669127355,0.3126145988387634,0.6286074274850293,0.3645166813970082,32.0,left
0.5178554612704431,0.14914783389606878,0.47199451609020215,0.41732991424775534,0.25410891792306245,0.21353565609412328,0.5099880729404447,0.49244038266921564,0.7768895484931768,0.20672012007314322,0.6244023443816644,0.33605495127167195,0.6648488931206789,0.3923378219931273,33.0,left
0.4560440710237046,0.13352292899253815,0.4480962756059803,0.3121139006705178,0.17066905485863515,0.22556563224005544,0.48766455649431606,0.46112431827673817,0.7861078859152251,0.21989253008872112,0.6459327527806238,0.3252560795060173,0.6882610997885177,0.37580577416137295,34.0,left
0.4024724556093062,0.12517742894222827,0.43390580645895227,0.2077801593139803,0.18204667085517912,0.2616555606790172,0.48531047276322425,0.4276448378256319,0.8113073278525782,0.23817173173788397,0.6393542699773889,0.30761136900715513,0.670301603016112,0.36854795176916433,35.0,left
0.38598767434316983,0.12588782095280227,0.3831227565178317,0.13970039786455857,0.2553728299834219,0.31729527420404935,0.5370152814048623,0.4643653294064052,0.8488010075092625,0.23763422860874428,0.6333725885918966,0.2925986703525538,0.6507370747016559,0.3645166813970082,36.0,left
0.31868048507396907,0.11701011860604105,0.3286022288337591,0.11317498455166586,0.20101016666816207,0.30225565632260043,0.504111814501897,0.45356470094638013,0.8131519316841107,0.219623266616356,0.5891158910907137,0.26810611501410264,0.6497757658559689,0.3495971417141792,37.0,left
0.24725340838859466,0.10884247014898918,0.33383014671164446,0.12290018369431266,0.1466499108042001,0.20601584715281263,0.4054058892369099,0.38445054990209826,0.762137399576531,0.21827899688612895,0.568182284109497,0.2623124791866438,0.64207796617832,0.3435479325727968,38.0,left
0.24588011258355635,0.11683226701278304,0.3442859824674187,0.13085747094330102,0.21365169472507262,0.13684276841247112,0.4018814768065795,0.4103683565439127,0.7744316372963382,0.21827899688612895,0.5962911753116948,0.2752167598167805,0.6488132355249654,0.3362901101805882,39.0,left
0.26236227804843537,0.11576718617815018,0.333084926644176,0.10256414573674633,0.24020107035251925,0.1383461574806759,0.43478270598759394,0.42548553472570205,0.759063840146819,0.2048383472137747,0.5687790855272432,0.2704763299482611,0.6462468951372262,0.3455643356198195,40.0,left
0.1771970117080599,0.09872149725347157,0.3061972728355826,0.07161895268900764,0.19089646273099703,0.21954921236812197,0.45828550202168117,0.3855302014520632,0.7135831195338334,0.19650551299038455,0.5107663431336,0.24308645516948424,0.6138543293405263,0.32177446539617094,41.0,left
0.1620881420482192,0.0942826460800914,0.2890202347158777,0.03890416402147778,0.18457449497689282,0.29022854377460305,0.5264398063919273,0.4686839356071033,0.7424694282662045,0.2016123046239695,0.5143539852438579,0.2322885864570221,0.601026291858032,0.3120963450585279,42.0,left
0.2513732958047612,0.10511367286531748,0.29350293252629456,0.01591625822272391,0.20480431030154023,0.23458596665046372,0.5558166231426185,0.526997458191353,0.7713580778666262,0.20672012007314322,0.5287091094218361,0.2454566701036427,0.6071202814789469,0.3435479325727968,43.0,left
0.24175760936612534,0.10848710508320014,0.3196425219157284,0.06189206982091733,0.23640933417142662,0.1879694511349541,0.5146917649587266,0.46652463250717346,0.736937957639654,0.20618261694400353,0.5197365873438322,0.2573082463016405,0.6205895986871717,0.3467744845925367,44.0,left
0.2925826331704542,0.10582406487589147,0.36818422295164055,0.11936435990629946,0.24272889447423296,0.24210577559177437,0.5017622062147069,0.43520445515598993,0.699446618850537,0.20080656183826306,0.5376793536320683,0.26968592395240876,0.642399216783593,0.36370889160049913,45.0,left
0.3722547162896248,0.11097296993898098,0.3547418182231894,0.09637477038210918,0.18963255067063045,0.23759560838598048,0.5358427149836729,0.4308858489552989,0.6760894398771491,0.20107480149503942,0.531697672246576,0.2670529090551632,0.6462468951372262,0.36612918954593354,46.0,left
0.3282987873138694,0.11044042952180266,0.3196425219157284,0.04420958342928216,0.19848234254644836,0.19699264914329717,0.5558166231426185,0.4082090534431444,0.6367534972564997,0.20403260442785864,0.4742817312706791,0.2533577209023754,0.6244384985258709,0.348386992741462,47.0,left
0.2568690948272305,0.09889934884672957,0.31665310859135687,0.02917896487882743,0.23640933417142662,0.25112897360128983,0.515864331379916,0.4146869627446108,0.6140131369497688,0.18924768502527733,0.45035956146472245,0.2520407119269521,0.6093641497760967,0.35927372632993304,48.0,left
0.18681269814669577,0.0916192677519172,0.27333932543333006,0.03359874461436263,0.21238778266470604,0.29774262551887176,0.45711069787854086,0.4708432387078716,0.6527346017713285,0.18172059358780324,0.49940205964813345,0.24598327308321366,0.6228346884693874,0.3467744845925367,49.0,left
0.16758132526941694,0.09303971365220054,0.2509343694357362,0.030946876773178644,0.1972184304860889,0.23909899745419239,0.46768617289055925,0.519437840860995,0.6932994999906334,0.20645188041636686,0.5299049901255657,0.2388726282803315,0.6295699578160328,0.33951666220032806,50.0,left
0.2046707752189434,0.10014194315375491,0.295744281431503,0.030946876773178644,0.19089646273099703,0.2857155129708744,0.5370152814048623,0.5075596173299388,0.7068226933086237,0.22526858519446158,0.5239233087400734,0.24308645516948424,0.6186657595102307,0.34395182747089414,51.0,left
0.22390214809621511,0.1044032808547426,0.3009721993093919,0.04597749532363338,0.22629563023426158,0.4015022436299702,0.5663920981555464,0.4503236898167131,0.7031334856455587,0.21129043239317546,0.5346885129395531,0.2407162402351215,0.6077615612046774,0.33951666220032806,52.0,left
0.22664873970628463,0.10493615939292411,0.29051636355361765,0.06542957733437049,0.2743363257954172,0.41353508337383005,0.5487677982828743,0.3952491218831966,0.6760894398771491,0.19381697352972083,0.5131581045405937,0.2391359297702209,0.6100066509868931,0.3516135447615163,53.0,left
0.21291316585147513,0.10653411876559993,0.30843862174079106,0.07957623993730323,0.2187097504197979,0.4045090217663798,0.531139022965391,0.3531324290306941,0.6373691454893731,0.19596800986145446,0.46112476566420213,0.23702901632554152,0.6084028409301592,0.3399190213765362,54.0,left
0.24588011258355635,0.10759953772109832,0.3203877419831933,0.10344810168357554,0.17825493467408648,0.4000017181597002,0.5205635479533797,0.36177169791101704,0.6490477349763104,0.19892478897889454,0.4748808105566624,0.2407162402351215,0.601346320978239,0.34637058969443935,55.0,left
0.28434024253684953,0.1081320781384143,0.333084926644176,0.11847872023403028,0.29456373366876676,0.4090220525701085,0.5323160648313987,0.42224863655390266,0.7074360006739298,0.19704301611952602,0.5287091094218361,0.24756358354832209,0.6263623377028136,0.36532293547131367,56.0,left
0.2829669467318183,0.10955252403869764,0.34354076239995024,0.11140538893187113,0.3476600774713816,0.43458825752927766,0.5264398063919273,0.4395271743153941,0.717269986329331,0.2075268866744402,0.5346885129395531,0.24124284321469425,0.6440018053550105,0.3479830978433647,57.0,left
0.29120933736435006,0.10830959161080678,0.333084926644176,0.09991227789556234,0.2477869501679706,0.36992248239680237,0.46533656460428574,0.43844546628565695,0.7111228674694274,0.21666648749891593,0.5215315473330797,0.24519336861395935,0.6257210579770831,0.35725732328259596,58.0,left
0.27197796448707123,0.10298283495446015,0.3263637242796591,0.09283894659409597,0.2060682223618997,0.20751923622101742,0.41128214767637417,0.4902810795692929,0.7627530478098841,0.21075292926403577,0.5305017915433119,0.248617291033856,0.6196282898412342,0.37096824971459874,59.0,left
0.3214296924863689,0.1060015783484225,0.34951390034530405,0.10610165325019949,0.2351454221100795,0.18496267299736502,0.4864875146292249,0.5377980866513852,0.781805370886854,0.20403260442785864,0.5430619557320391,0.24730028205843269,0.6407954067271078,0.38145108840465625,60.0,left
0.32005639668026475,0.10653411876559993,0.3375647801029018,0.10521769730336672,0.22250148660088342,0.30225565632260043,0.5522944484351555,0.5237605600203992,0.7105095601041214,0.204300844084635,0.5334926322358235,0.24255985218991327,0.642399216783593,0.366935443620239,61.0,left
0.19505508878030042,0.09765641641883871,0.29200964803966656,0.07427082053018808,0.23387910259841505,0.2766951785604661,0.5205635479533797,0.5248381550914303,0.6914548961591009,0.20806438980337028,0.5209324680470964,0.23123487897148642,0.6241172479205979,0.3330650938827393,62.0,left
0.208790662634037,0.09694602440826472,0.3069453372547457,0.06984935706921291,0.26169239028622826,0.263158949747222,0.5393648896911358,0.582074082604656,0.7504611509576407,0.2102154261351039,0.5293059108395823,0.23834602530096483,0.6363052271626781,0.3596776212280304,63.0,left
0.2678580770719705,0.10493615939292411,0.33084357773896755,0.09283894659409597,0.16814123073692144,0.3533823390450763,0.5511174065691478,0.592874711064681,0.7498455027247672,0.2174732541002129,0.5364834729288042,0.25125080745790207,0.6526621353636646,0.36612918954593354,64.0,left
0.26098898224340417,0.10724451077631336,0.33831284452206134,0.09814436600121113,0.10872291917922183,0.35037556090749433,0.4911867312026956,0.5183602457899639,0.7019045300473792,0.21370970838147585,0.5281100301363182,0.2567816433222738,0.6430404965093235,0.3520159039377244,65.0,left
0.25824239063333465,0.10511367286531748,0.3547418182231894,0.10168018978922433,0.2566367420437885,0.3052624344601824,0.4418337685701985,0.4881217764685175,0.7068226933086237,0.2016123046239695,0.5179416273545812,0.2575710462647276,0.6395128472758973,0.363306532424291,66.0,left
0.26098898224340417,0.1070666591829168,0.33383014671164446,0.12997351499577903,0.4083447085417262,0.3804490694745226,0.47238538946402286,0.5593952306135677,0.740011517069366,0.20376334095570314,0.5065796217373588,0.25309441941269206,0.6433605256295305,0.3576612181810077,67.0,left
0.2774737635106135,0.10688914571052432,0.3032107038629057,0.12201622774748344,0.35903769346891323,0.5233082577589272,0.5287894146791174,0.5691141510438555,0.717269986329331,0.2139779480382522,0.4802634126561678,0.24730028205843269,0.6250797782516031,0.35564481513367063,68.0,left
0.23076862712245116,0.10262780800953575,0.30171741937686036,0.09283894659409597,0.24272889447423296,0.5443614319143748,0.5487677982828743,0.4697615306781344,0.671786924848778,0.19381697352972083,0.4724890491496687,0.2362391118564915,0.6055164714224635,0.3467744845925367,69.0,left
0.22664873970628463,0.10511367286531748,0.32710894434712756,0.10875352109137992,0.2743363257954172,0.5639083534025104,0.5687417064418199,0.5021593031003491,0.678549691941555,0.1583330645817771,0.4724890491496687,0.2391359297702209,0.6199483189614412,0.35846747225531317,70.0,left
0.30631820702419077,0.11434674027786773,0.33831284452206134,0.14854164105968692,0.3704153094654501,0.6887211456690565,0.5757950067463753,0.6760263887399418,0.7338643982094624,0.171505474597355,0.4724890491496687,0.25177741043726876,0.64207796617832,0.38266123737737345,71.0,left
0.29807581639165903,0.11665475354025201,0.31217325513263106,0.15473101641432407,0.3603016055292727,0.7308274939799517,0.5652195317343569,0.6479513354771314,0.7480008988932347,0.20618261694400353,0.4778716512491741,0.24413966112842367,0.6343801665006694,0.3564510692082905,72.0,left
0.29807581639165903,0.11221590236687184,0.3129213195512115,0.12466809558866387,0.32616875753865315,0.6496215754945709,0.5663920981555464,0.4945996857699839,0.699446618850537,0.2123654386512488,0.4593298056749546,0.23334179241596154,0.6183445089049577,0.3560487100320824,73.0,left
0.34890084019491496,0.11896310492364037,0.33084357773896755,0.13970039786455857,0.3400741976569108,0.6150350361249863,0.5887200900455767,0.5248381550914303,0.7049780894770912,0.2295696340423401,0.4671064470496944,0.24255985218991327,0.6308525172672432,0.38064483433035257,74.0,left
0.38873426595323224,0.13032667212618332,0.3487686802778356,0.20512829147279987,0.29456373366876676,0.6375944629465735,0.5264398063919273,0.5874743968342457,0.7602951366130419,0.2680108340154117,0.5257182687293245,0.26415609114143557,0.6561897845970908,0.3822573424792761,75.0,left
0.4134640536553178,0.12997164518139748,0.3861093254905086,0.2351895285737058,0.2515786863500509,0.5578947971285118,0.4418337685701985,0.505400314230009,0.7793474596900154,0.27123687660521867,0.5580138813277635,0.27785077776742106,0.669017822079585,0.38266123737737345,76.0,left
0.42170382848658505,0.12766329379800911,0.4115008504607758,0.2263482853778882,0.3603016055292727,0.5428551792470628,0.47826164790348713,0.4740842498375386,0.764597651641413,0.2451613200462166,0.5364834729288042,0.2741635538578411,0.6796019912651801,0.37903232618142724,77.0,left
0.4395592897575682,0.13032667212618332,0.4047796480968451,0.2201589100232546,0.465232788527409,0.6060147017134057,0.5440685817094106,0.5799147795038806,0.7639820034080635,0.24892486576495365,0.5424651543142964,0.2767975718084834,0.686016010006302,0.39919328520912956,78.0,left
0.4107122304416464,0.12890622622589998,0.36519765397896364,0.21573913028840863,0.34513225335065556,0.5909750838319567,0.5522944484351555,0.6684667714095838,0.785494578549919,0.2553759271289753,0.5663873241202495,0.28232740461966266,0.6808845507163905,0.39879092603292143,79.0,left
0.40521904722044866,0.12695323990830065,0.36444958955980056,0.21043371088060425,0.2060682223618997,0.5834610020876809,0.5499403647040637,0.7062648580613882,0.7953285642053203,0.2379034920811094,0.5478477564138018,0.2746901568374138,0.6796019912651801,0.38467764042471053,80.0,left
0.4395592897575682,0.12713075338069313,0.37714677422078324,0.20866579898694226,0.2844500297316017,0.5969943673029903,0.5452411481306001,0.6652298732386228,0.7713580778666262,0.24462381691728474,0.531697672246576,0.2604688672318538,0.6773569014829643,0.39919328520912956,81.0,left
0.4148347336590845,0.12855119928097647,0.3390580645895298,0.2042443355259671,0.39570077303253726,0.6165412887911259,0.5417144979783259,0.6241907754571514,0.7615240922112214,0.26908584027348503,0.5388752343357979,0.2504604014620515,0.6677352626283728,0.38145108840465625,82.0,left
0.43681269814642576,0.13210214497139017,0.3532485337365614,0.22104286597008382,0.35777378140854665,0.6225548450651246,0.6051718234970593,0.7311030131532377,0.8088494166557396,0.258064466589639,0.5490436371175313,0.2620486761701599,0.670942882741592,0.3842737455262988,83.0,left
0.43681269814642576,0.1315696045540733,0.3861093254905086,0.23607516824597852,0.32111070184392787,0.6120282579874043,0.6075214317842494,0.77537900910567,0.8033179460287094,0.23628995887851723,0.5472486771282838,0.2767975718084834,0.6863372606118254,0.3971768821617925,84.0,left
0.3708788046833291,0.12695323990830065,0.3607178005196552,0.23430557262687657,0.38305924497464616,0.5548880189921022,0.49588594777615924,0.5971933172653721,0.740011517069366,0.24408631378814505,0.5388752343357979,0.26468269412080225,0.6844121999498167,0.37943468535763536,85.0,left
0.38873426595323224,0.12482240199730477,0.34951390034530405,0.21839099812959262,0.3565098693471995,0.5172947014849285,0.47826164790348713,0.4643653294064052,0.7430850764995576,0.2395160014681128,0.5358843936428173,0.25441092686131483,0.6635663336694666,0.3842737455262988,86.0,left
0.39148608916690364,0.1249999154698358,0.3442859824674187,0.1794868341074256,0.2970915577894928,0.5714281623438211,0.5099880729404447,0.5140416395892657,0.7891814453454167,0.2206992966900181,0.5203356666293502,0.2573082463016405,0.6478507051939602,0.3774198180325019,87.0,left
0.3379144737525124,0.11576718617815018,0.29648950149897146,0.11847872023403028,0.2730700062837599,0.5413546537767928,0.4488848311528031,0.5043227191589779,0.7811920635215479,0.2319889100306387,0.48445013405241255,0.25836145226057816,0.6414366864525896,0.3693542058437842,88.0,left
0.2664847812658664,0.10262780800953575,0.24421316707121932,0.07250290863583686,0.2060682223618997,0.41353508337383005,0.3595773390347361,0.4514053978464503,0.744314032097737,0.24247278058555288,0.4605256863786842,0.24651037758938266,0.6369465068881581,0.3576612181810077,89.0,left
0.23901101775605582,0.10919749709391269,0.2666181230693958,0.08576561529194038,0.21112387060434656,0.39248190921838244,0.34195080144012024,0.4740842498375386,0.7338643982094624,0.2354842160925994,0.4671064470496944,0.2357120073503225,0.6340601373804624,0.3455643356198195,90.0,left
0.31730718926893076,0.1249999154698358,0.3188944574965653,0.13704684629793817,0.2793919740378641,0.4496221482148641,0.367803205760481,0.45788330714707826,0.740011517069366,0.24247278058555288,0.4730858505674149,0.25098750596801267,0.644323055960534,0.3689518466675761,91.0,left
0.3269228757075737,0.12198151019673809,0.3069453372547457,0.12466809558866387,0.2920335020957552,0.4180481141775587,0.3689780099036142,0.42332623162493377,0.7338643982094624,0.24193527745662102,0.4802634126561678,0.25651784030578817,0.6446443065658087,0.35846747225531317,92.0,left
0.2376377219499517,0.10351571349264166,0.24719973604389622,0.030946876773178644,0.2503147742896843,0.4090220525701085,0.3936556100808417,0.42872654585536907,0.6920705443919744,0.2096768991905833,0.4491636807614583,0.22807475956807366,0.6090441206558896,0.34032291627494793,93.0,left
0.1799436033181223,0.10014194315375491,0.20462975077778367,0.0,0.2705421821620462,0.41654186151141914,0.4171561683929781,0.40280873921355465,0.6613396318280707,0.1951612432601575,0.3833731580587241,0.2014747892583486,0.5849906342623203,0.33145105001161035,94.0,left
0.19505508878030042,0.11629972659546706,0.23898382701777976,0.06984935706921291,0.2869778538533154,0.37443551320052393,0.3936556100808417,0.36177169791101704,0.6834655143352322,0.20080656183826306,0.39653126259954874,0.2033184012131386,0.5952535528423919,0.3048385226663193,95.0,left
0.3131873018527642,0.13014915865379084,0.34577926695346406,0.16710976712359482,0.21997366248015737,0.45564143168472526,0.37367946419994524,0.3941694703332317,0.7117385157023008,0.19569874638908935,0.4694982084566881,0.23176148195105917,0.6186657595102307,0.3322573040862302,96.0,left
0.36263902985098895,0.1305041855985758,0.36519765397896364,0.20866579898694226,0.24525912604724454,0.5518812408545131,0.38777935164228694,0.40928870499395487,0.7098939118707683,0.20779512633121655,0.48205837264541884,0.25098750596801267,0.6353426968316747,0.366935443620239,97.0,left
0.33379197053507426,0.12606533442519474,0.294248152593763,0.1538470604674913,0.343868341290289,0.5744349404802378,0.42303242683152575,0.4017290876635897,0.7098939118707683,0.2368274620074473,0.4569380442679609,0.24940719550311208,0.6385503169448938,0.37217686296542496,98.0,left
0.3241762840964313,0.12748578032561664,0.3002241348902288,0.12024831585313223,0.3527181331661069,0.5353410975027941,0.4430085727133317,0.47300254180780144,0.7240304125545407,0.22607535179575855,0.4443778800792302,0.23650241334617483,0.6228346884693874,0.35362841208664797,99.0,left
0.3104407102416289,0.12748578032561664,0.3375647801029018,0.17771892221376362,0.3034135255445847,0.43158147939286806,0.4065806933800431,0.519437840860995,0.7031334856455587,0.19381697352972083,0.4204557102732771,0.21885669979412192,0.6039126613657277,0.32741977963945423,100.0,left
0.3282987873138694,0.12535528053548628,0.3188944574965653,0.22192682191760582,0.3312244057811,0.44060181380327634,0.3631017514650665,0.4708432387078716,0.698217663251878,0.20860189293251175,0.42763099449425823,0.22860136254744035,0.6183445089049577,0.3548385610593652,101.0,left
0.27472455609820656,0.12535528053548628,0.2785672433112154,0.1750670543725832,0.35524595728683295,0.5804484967542365,0.367803205760481,0.44384578051609225,0.7615240922112214,0.24381705031598955,0.47129089057816387,0.2388726282803315,0.64207796617832,0.3620963834515756,102.0,left
0.23351521873252068,0.12588782095280227,0.294248152593763,0.14588808949306298,0.3400741976569108,0.6285741285361652,0.4030562809506364,0.48164386716789664,0.7830343264855131,0.23628995887851723,0.4802634126561678,0.22860136254744035,0.6347014171059442,0.3455643356198195,103.0,left
0.2925826331704542,0.1273082668530856,0.3188944574965653,0.18479225351523,0.33628246147483765,0.5578947971285118,0.4054058892369099,0.4676022275782046,0.7197278975261696,0.20672012007314322,0.4473687207722108,0.2212269147282786,0.6080815903248844,0.3560487100320824,104.0,left
0.27060466868204003,0.1257103074804098,0.2845403812565692,0.20512829147279987,0.2983554698498594,0.5218020050916152,0.4077554975241,0.3725702698921083,0.6834655143352322,0.19811802237759757,0.39832508365444497,0.2130625624400686,0.5965361122936024,0.3427416784981787,105.0,left
0.2197796448787841,0.12695323990830065,0.2852884456757323,0.19186558481669636,0.2667504459799659,0.4330820048631381,0.4712128230428334,0.32721462238887966,0.6926861926253274,0.2051076106859302,0.38038231736620887,0.21332586392975195,0.601026291858032,0.3366940050786855,106.0,left
0.18955928975675818,0.12677572643590818,0.30171741937686036,0.19098162886986714,0.27686414991713093,0.3518818135748063,0.5370152814048623,0.3347742397192377,0.6908415887937949,0.2016123046239695,0.4210525116910233,0.22307052668307037,0.6064777802681505,0.33951666220032806,107.0,left
0.23076862712245116,0.11914061839603285,0.29947607047164837,0.20070682801251394,0.2503147742896843,0.4000017181597002,0.5264398063919273,0.33261493661931496,0.7111228674694274,0.20241907122526648,0.46471240777492895,0.23070827599211974,0.6266835883080866,0.3495971417141792,108.0,left
0.3214296924863689,0.11825271291306638,0.3256156598610822,0.19363349671104757,0.1251561834191932,0.4120288307076976,0.45593589373449106,0.3725702698921083,0.7744316372963382,0.22526858519446158,0.47368492985293287,0.2407162402351215,0.6391915966703738,0.36975810074188153,109.0,left
0.31730718926893076,0.12961661823647397,0.3562351027092383,0.2166230862352414,0.09481507160966629,0.37142873506294194,0.38777935164228694,0.4136073111946459,0.805775857225548,0.22661285492489824,0.4718899698636818,0.24940719550311208,0.6228346884693874,0.3516135447615163,110.0,left
0.27472455609820656,0.13085955066436483,0.33681956003543334,0.2166230862352414,0.2819197981595778,0.3849621002782513,0.3172732012628998,0.34341350859956066,0.75783488454816,0.20241907122526648,0.45035956146472245,0.2557284373633344,0.5997437324068216,0.3479830978433647,111.0,left
0.2211529406838153,0.11931813186856477,0.2621354252589789,0.15915079614985572,0.30467743760494415,0.3819553221406622,0.2549951553312013,0.32073465660847944,0.7043624412442178,0.19865552550652943,0.42763099449425823,0.24940719550311208,0.6000637615270286,0.34435418664710227,112.0,left
0.19642838458533163,0.11363634826729285,0.2516795895032047,0.13262706656240297,0.06700419137315095,0.27368553682494934,0.2737964970698741,0.3909305156824985,0.7031334856455587,0.19489197978779238,0.4252392330872645,0.23860932679064817,0.6016675715835138,0.326209630666737,113.0,left
0.2225262364888465,0.11097296993898098,0.29051636355361765,0.14500413354623376,0.055624167924321455,0.21052601435860652,0.300823705533368,0.32937392548964795,0.7019045300473792,0.18091382698650804,0.41208226748079113,0.2362391118564915,0.5865932228337378,0.3330650938827393,114.0,left
0.18681269814669577,0.11274878090505336,0.25466900282699356,0.16887767901794604,0.19848234254644836,0.2797019566968757,0.26204398019185504,0.23326231625358673,0.6840811625685852,0.1922044641427174,0.38098139665173036,0.22517744012774976,0.5875557531647413,0.316531510329094,115.0,left
0.20192156780653647,0.12375698304194493,0.2479449561113647,0.19717100422450073,0.14032794304910823,0.32481508314536,0.23501900944938825,0.2980578610971705,0.6877680293636033,0.20645188041636686,0.3755976556183356,0.22307052668307037,0.6029501310347243,0.3145166430039623,116.0,left
0.2760978519032449,0.12926125317068493,0.3069453372547457,0.20512829147279987,0.12768641499121713,0.32631560861563,0.2643958262000794,0.3282942739388375,0.695144103822166,0.19274196727164927,0.4270341930765156,0.23702901632554152,0.6064777802681505,0.3342737071332511,117.0,left
0.2651088696595707,0.12180399672434561,0.3032107038629057,0.19982287206568472,0.22123757454052395,0.3097754652639111,0.269095042773543,0.27537900910608926,0.698830970617184,0.19354873387294447,0.456338964982443,0.24598327308321366,0.6045539410914582,0.3415315295254615,118.0,left
0.23076862712245116,0.1180751994406739,0.27781917889263497,0.19982287206568472,0.19342428685271074,0.27368553682494934,0.24324263845318228,0.3315352850685045,0.7461586359292696,0.20698938354529872,0.4342117551657374,0.25362102239205875,0.6090441206558896,0.3552424559574625,119.0,left
0.2060440710239746,0.12375698304194493,0.29798278598502037,0.21131766682743347,0.21744583835844367,0.3082692125965991,0.25029370103578685,0.40388839076351957,0.7897970935782901,0.2075268866744402,0.42882687519799134,0.2454566701036427,0.6090441206558896,0.33951666220032806,120.0,left
0.2348911303398893,0.12677572643590818,0.3002241348902288,0.222812461589875,0.24146498241386638,0.3774422913369406,0.29142303466448993,0.3596123948110872,0.7584505327815094,0.19758051924845788,0.44198611867223647,0.23992583423927094,0.6026301019145173,0.338708872403819,121.0,left
0.26098898224340417,0.12695323990830065,0.26512199423165583,0.22192682191760582,0.12768641499121713,0.356389117181493,0.29729705538109386,0.29481684996750346,0.7135831195338334,0.18548413930654029,0.41985663098775916,0.24255985218991327,0.5997437324068216,0.35120964986310454,122.0,left
0.24588011258355635,0.1278408072704016,0.26437677416418737,0.21043371088060425,0.1466499108042001,0.2812024821671528,0.2655706303441292,0.26349872909525374,0.7062070450757503,0.18172059358780324,0.3869619391033332,0.2341321984118121,0.5991012311960251,0.3415315295254615,123.0,left
0.2678580770719705,0.12766329379800911,0.29200964803966656,0.21043371088060425,0.19469060636437518,0.23759560838598048,0.24441968031918293,0.23542161935351658,0.6816209105036997,0.177150281267771,0.38456903876245363,0.2378189207947976,0.5872357240445343,0.34637058969443935,124.0,left
0.2637355738545395,0.12215902366913056,0.27632589440600697,0.20070682801251394,0.1036648634854842,0.24060238652356958,0.24206783431004197,0.21922273314282847,0.6631818947920358,0.17177422616182092,0.38636399875170113,0.24203274768395033,0.5647848262223825,0.33588775100438006,125.0,left
0.2802203551206759,0.11523430763996867,0.259148856286302,0.18302434162087877,0.11630879899467317,0.24962558453191264,0.2796705177864709,0.25162050556419757,0.699446618850537,0.16720442574947825,0.3875598794549653,0.2338683953955325,0.5718407354317687,0.335079961207871,126.0,left
0.30357161541412836,0.1139913752120787,0.26512199423165583,0.18921371697551592,0.1656134066161954,0.23909899745419239,0.2902482305213496,0.261339425995331,0.7430850764995576,0.16666641071285682,0.39413836225820376,0.2341321984118121,0.6039126613657277,0.3415315295254615,127.0,left
0.2802203551206759,0.12180399672434561,0.2703499121095412,0.21396953466861746,0.11377856742166159,0.22706902130826023,0.23971822602285187,0.2840182779864122,0.7566059289499769,0.18440810923287998,0.400120043643696,0.246246574572897,0.6067990308736739,0.3330650938827393,128.0,left
0.31593389346282663,0.12198151019673809,0.28678173016177766,0.22369641753670777,0.11757271105503975,0.24812219546370784,0.20094073840328974,0.354212080580659,0.7449296803310901,0.19086019441228075,0.39593332224745126,0.25309441941269206,0.5840281039313151,0.3552424559574625,129.0,left
0.3090647986353261,0.11221590236687184,0.2703499121095412,0.21131766682743347,0.1226283592974795,0.26015217160964,0.1856638090949474,0.3380131943699709,0.7264906646189466,0.1634408800307412,0.38875576015869484,0.23939923125990425,0.5779341143101497,0.3479830978433647,130.0,left
0.27335126029317536,0.1180751994406739,0.24570645155785087,0.2068962033671511,0.055624167924321455,0.21503904516232808,0.20094073840328974,0.2451405397846429,0.7117385157023008,0.1518814913100659,0.37799055595921516,0.22465083714817702,0.5763309149962001,0.3245971225178135,131.0,left
0.2651088696595707,0.12642036137011914,0.24271988258517396,0.21308557872178469,0.06321004773977279,0.17894911672336633,0.22444129671542612,0.20518520651100403,0.6932994999906334,0.16666641071285682,0.332535699886062,0.21516947588454194,0.5596533669322223,0.3201619572472456,132.0,left
0.22939533131741996,0.11594469965054355,0.2345039735584713,0.21131766682743347,0.05941831155769961,0.2781957040307361,0.2655706303441292,0.2429812366838746,0.6926861926253274,0.17016120486691833,0.33911532162365177,0.2167497863496486,0.5609365371259667,0.3116939858823198,133.0,left
0.19780168039036994,0.1044032808547426,0.21956686216842058,0.19274954076352913,0.04930460762152222,0.3609021479852146,0.28554677622502567,0.264580437124998,0.716656678964025,0.16370963159541674,0.3797843770145768,0.22939126701669643,0.5724820151572487,0.3213705704977592,134.0,left
0.14285676917094037,0.10564621328263346,0.18745413483363293,0.14677372916602494,0.15170555904663985,0.2827087348344648,0.269095042773543,0.2429812366838746,0.6865390737654238,0.1478491940268647,0.3367224212823068,0.21833009681454918,0.5516355381343665,0.297983059450317,135.0,left
0.1620881420482192,0.10848710508320014,0.1680357478081369,0.13174142689013024,0.18078275879481964,0.2646623388154268,0.2773209094992808,0.23110301315281845,0.6158565703475176,0.11854810678595662,0.2733259378552688,0.20384500419271134,0.5307890611114825,0.28104865244235455,136.0,left
0.2651088696595707,0.10582406487589147,0.18371950144179294,0.17418309842575042,0.10240095142511763,0.34586253010376566,0.289071188655349,0.28833688418711034,0.6281496376335411,0.10188141452400679,0.3014359679913525,0.2167497863496486,0.5506736185458951,0.3177416593018112,137.0,left
0.2692313728770088,0.1045811324480006,0.19492197944058987,0.19982287206568472,0.11504247948202817,0.3819553221406622,0.29847185952422706,0.3952491218831966,0.698830970617184,0.11397830637361395,0.35346930686727873,0.2254407416174331,0.5760102751334593,0.3249994816940198,138.0,left
0.23076862712245116,0.11221590236687184,0.21433894429053169,0.19628704827767152,0.1036648634854842,0.3789485440042526,0.3160983971197595,0.4330451520560672,0.7111228674694274,0.1502684700151633,0.3642345110667584,0.2341321984118121,0.5843481330515221,0.3322573040862302,139.0,left
0.22939533131741996,0.11914061839603285,0.22031350441144326,0.2077801593139803,0.010113703936177387,0.35037556090749433,0.3160983971197595,0.40064943611278636,0.675476132511843,0.1693549501735223,0.3612436703742432,0.24993379848247876,0.5846693836567969,0.338708872403819,140.0,left
0.2664847812658664,0.11345883479476182,0.18969406156270452,0.21131766682743347,0.08596527973384838,0.25413575173770653,0.28319716793874505,0.3855302014520632,0.6539635573699876,0.15161273974559997,0.33193775953442994,0.24703698056874934,0.5750477448024558,0.32540337659211716,141.0,left
0.28571353834188074,0.10955252403869764,0.1852127859284245,0.21396953466861746,0.19469060636437518,0.22255599050453156,0.269095042773543,0.4017290876635897,0.6631818947920358,0.1534945126049685,0.3283489784898208,0.23702901632554152,0.5673505558673391,0.3258057357683253,142.0,left
0.25961568643836586,0.11345883479476182,0.212099017560881,0.23607516824597852,0.11377856742166159,0.3368421956933574,0.28672158036907547,0.38337089835214044,0.6896126331951358,0.17446225371479684,0.36782329211136755,0.23992583423927094,0.5715200955690296,0.3201619572472456,143.0,left
0.29807581639165903,0.11736514555096456,0.23226262465326286,0.2484522352298093,0.05689048743697356,0.36541517878894325,0.2773209094992808,0.3196550050585145,0.6711736174834719,0.15967733431200415,0.36064573002261113,0.25177741043726876,0.5711994557060383,0.33467760203166286,144.0,left
0.30494491121915956,0.12304692915223647,0.22330149555967438,0.26259889783343127,0.13400597529501113,0.3082692125965991,0.2714446510607331,0.26997869487565396,0.6263050338020086,0.13655906877834312,0.3175837742903411,0.24387635963874033,0.5673505558673391,0.33145105001161035,145.0,left
0.24175760936612534,0.12233653714152304,0.2001498973184752,0.2581791180978996,0.12389227135783898,0.30225565632260043,0.28672158036907547,0.24406088823383953,0.6441295717145863,0.1462366846396499,0.3008368887053692,0.22017370876934095,0.5567669974245266,0.30443616349011116,146.0,left
0.24588011258355635,0.10955252403869764,0.17998486805053915,0.19893891611816272,0.08343745561213467,0.3037619089899124,0.29259783880762313,0.28941859221600197,0.6908415887937949,0.1634408800307412,0.3157899532354449,0.22043701025922857,0.5378443595783349,0.3084674338622655,147.0,left
0.2651088696595707,0.1115058484771625,0.1695290322947649,0.18832976102868315,0.09608139112133074,0.3112759907341811,0.27262169292581717,0.3725702698921083,0.695757411187472,0.16451588628881275,0.31399499324619384,0.24045293874543816,0.5481072781584064,0.3108877318076999,148.0,left
0.29807581639165903,0.11949564534095725,0.212099017560881,0.22811619727223942,0.07838180736969491,0.33834844835949696,0.2796705177864709,0.3574530917103189,0.6693290136519394,0.16720442574947825,0.3265551574349246,0.2609954702112205,0.5744064650767235,0.33145105001161035,149.0,left
0.29120933736435006,0.11541182111236115,0.22703470677537751,0.24049494798151017,0.15929143886110353,0.2842092603047348,0.29142303466448993,0.277538312206012,0.6674844098204069,0.1698924533024524,0.3504784661747635,0.2562550403427011,0.5737651853512435,0.333871347957043,150.0,left
0.2513732958047612,0.11736514555096456,0.19193398829235875,0.2723257807015216,0.23893715829215267,0.17293269685143287,0.2338419675843042,0.2678193917757241,0.6791629993068611,0.16881693513669127,0.34210502338227755,0.2357120073503225,0.5663886362788677,0.30887132876067724,151.0,left
0.30219831960909005,0.12695323990830065,0.21658029319574368,0.29885119401372506,0.1226283592974795,0.24511255372819107,0.20681475911989367,0.29049824376681244,0.6699446618848128,0.17177422616182092,0.34210502338227755,0.24308645516948424,0.573444545488254,0.32338697354509627,152.0,left
0.32966946731763613,0.12855119928097647,0.24271988258517396,0.26613640534688443,0.08975942336722653,0.35940162251494456,0.22796794686770028,0.24946120246427483,0.6392125788871219,0.1647846378534883,0.35346930686727873,0.25362102239205875,0.5750477448024558,0.32540337659211716,153.0,left
0.31730718926893076,0.12428986158012645,0.22330149555967438,0.24049494798151017,0.23261519053805557,0.2781957040307361,0.21386582170249824,0.21274276736242825,0.6164710481466074,0.14677418776879136,0.3343306598753095,0.24914389401322268,0.5686337260610834,0.335079961207871,154.0,left
0.31593389346282663,0.12428986158012645,0.2225548533166517,0.25287369869078447,0.18457449497689282,0.18496267299736502,0.175088334082929,0.2365012709034744,0.6035646734957574,0.13118250176470347,0.3086123911462231,0.2388726282803315,0.5651054660851234,0.3479830978433647,155.0,left
0.3282987873138694,0.12482240199730477,0.2539209384084131,0.274977648542702,0.05436025586396198,0.20150567994701873,0.1715639216526057,0.2591801228945627,0.5759061499277784,0.1381720900732457,0.3062206297392258,0.23360509390584916,0.5651054660851234,0.3249994816940198,156.0,left
0.380494491121965,0.1273082668530856,0.27333932543333006,0.31122826099755585,0.11251465536130212,0.2616555606790172,0.20329034669047985,0.2548594602149308,0.5826665761529881,0.15564503702880295,0.316387893587077,0.24993379848247876,0.5683130861983425,0.33951666220032806,157.0,left
0.34477833697747684,0.12766329379800911,0.24346510265264243,0.30238701780173827,0.15044164698529272,0.24060238652356958,0.19623928410787528,0.20302384693214037,0.5838955317511711,0.1551075338998711,0.30921033149785515,0.2578348492812115,0.5657473565533877,0.3479830978433647,158.0,left
0.2802203551206759,0.12073857776884722,0.22628806453235129,0.2484522352298093,0.15044164698529272,0.21353565609412328,0.175088334082929,0.17494673718955767,0.5759061499277784,0.14999971845069737,0.29904306765047295,0.24730028205843269,0.5667092761416086,0.34032291627494793,159.0,left
0.2527465916097924,0.11647724006785953,0.2225548533166517,0.24137890392834294,0.19848234254644836,0.3052624344601824,0.19388967582068517,0.23326231625358673,0.6084816663232182,0.1486559606281599,0.29605222695749234,0.23544870586063915,0.5670299160045982,0.3294346469645877,160.0,left
0.17170382848685506,0.10973003751109012,0.1934286949545445,0.23165370478569258,0.1656134066161954,0.34586253010376566,0.17978755065639973,0.2624190775452959,0.5949596434390152,0.12392467379959626,0.2721289182176534,0.22438753565849368,0.5436177093365089,0.3004033573957514,161.0,left
0.19505508878030042,0.1115058484771625,0.20911102641264634,0.21043371088060425,0.09734530318267787,0.26015217160964,0.1374856506065072,0.2365012709034744,0.5716036348994074,0.117741852092351,0.2846890824063806,0.23650241334617483,0.5445796289249802,0.32177446539617094,162.0,left
0.2939559289754854,0.12588782095280227,0.24421316707121932,0.22192682191760582,0.1441196792311885,0.21654243423053288,0.1421848671799708,0.2602597744453661,0.6269195116010984,0.1658601560192512,0.3624406900118622,0.2604688672318538,0.5824242938745812,0.34072527545115605,163.0,left
0.2815936509257071,0.12411234810759542,0.22927605568058596,0.22369641753670777,0.12389227135783898,0.19699264914329717,0.11750950472469412,0.261339425995331,0.6269195116010984,0.1870966486935437,0.38157933700382785,0.2559912373264215,0.5869144734390108,0.3229830786466845,164.0,left
0.18955928975675818,0.10369322696503414,0.17998486805053915,0.19540309233014952,0.03413284799061245,0.07669288768165217,0.05052776677563742,0.14794927899777832,0.5248916178201952,0.1494622153217673,0.3122011721908322,0.22438753565849368,0.5558050778360553,0.2975807002741089,165.0,left
0.19917497619540114,0.10617909182081497,0.16579582107848267,0.18921371697551592,0.02907719974817269,0.015039617881448919,0.04935296263249711,0.07451446527387162,0.5095261615382434,0.13440854435451044,0.2984451272983719,0.2141162699256025,0.5548425475050518,0.2862900717875423,166.0,left
0.3269228757075737,0.12677572643590818,0.21732693543876636,0.2166230862352414,0.0379269916239906,0.08120305488743895,0.09048229626120019,0.1339096958878656,0.5709891571003176,0.14301064205005432,0.3444979237231607,0.24703698056874934,0.5724820151572487,0.3237908684431936,167.0,left
0.3214296924863689,0.1255327940080173,0.24047853367996552,0.2290001532190722,0.08343745561213467,0.0932330310333711,0.08460603782173592,0.1846656576206911,0.5685300754692157,0.1306449986357734,0.3367224212823068,0.25967846123600324,0.5673505558673391,0.3270158847410425,168.0,left
0.2348911303398893,0.11026291604927163,0.21135237531785478,0.18921371697551592,0.12010053517675345,0.09624267276888787,0.05992843764450839,0.16522781675926979,0.537799162905312,0.13037624707130746,0.31160323183920013,0.23702901632554152,0.5570876372872675,0.30927368793688537,169.0,left
0.21840634907267997,0.10582406487589147,0.1822262169557476,0.1626883036633089,0.08849551130685995,0.12481279226654607,0.06932910851338647,0.17278743408963493,0.5433306335323422,0.1357528140847375,0.316387893587077,0.23123487897148642,0.5602946466579528,0.3173393001256031,170.0,left
0.19780168039036994,0.11097296993898098,0.17774494132088492,0.19717100422450073,0.06194613567941332,0.07819627674985696,0.11163324628614646,0.2710583464256189,0.5900426506110747,0.11317205168021616,0.325359276731195,0.24124284321469425,0.5702369253750348,0.30685492571334017,171.0,left
0.21840634907267997,0.11274878090505336,0.19193398829235875,0.19186558481669636,0.04424655192777749,0.046616515516682,0.1739135299397958,0.3034561188478335,0.610325099720967,0.09274181369932144,0.32117255533495026,0.24756358354832209,0.5702369253750348,0.3116939858823198,172.0,left
0.2060440710239746,0.10848710508320014,0.1956686216841952,0.14588808949306298,0.050568519681881696,0.08421269662179043,0.17743794236920252,0.2041034984821053,0.5660721642723772,0.10053765670125969,0.3157899532354449,0.24203274768395033,0.552918097585577,0.30362837369360207,173.0,left
0.16620802946438573,0.10387074043742661,0.18745413483363293,0.13262706656240297,0.12389227135783898,0.06315952246634282,0.0951815128346638,0.1533475367492798,0.5359545590737795,0.10752673310211236,0.299641008002105,0.2322885864570221,0.532712900288173,0.2830642876284326,174.0,left
0.18543940234166456,0.1060015783484225,0.1934286949545445,0.13174142689013024,0.09860921524304445,0.013536228813244122,0.022325754168086576,0.1911456234010842,0.5568526564165452,0.0940860834297581,0.2799044206585073,0.2291279655270131,0.5275814409982633,0.2923392809289229,175.0,left
0.1758237159030216,0.10973003751109012,0.1941753371975672,0.12643769120776582,0.015169352178617146,0.05112954632041067,0.03055162089382435,0.17386708563959274,0.5660721642723772,0.10241942956062822,0.2864829034617422,0.22886466403732975,0.5362411602643835,0.29032287788190025,176.0,left
0.18269281073052923,0.10759953772109832,0.20612445743996943,0.12113227180065067,0.15170555904663985,0.09473928369951068,0.08460603782173592,0.1468696274478134,0.5568526564165452,0.13091375020023932,0.3050236101016104,0.24229604917363368,0.5397688094978097,0.2991932084230342,177.0,left
0.24725340838859466,0.1115058484771625,0.2374905425311482,0.13262706656240297,0.20985995854397999,0.12781957040295566,0.11985911301188423,0.21382447539217253,0.567915597670126,0.14596742116749617,0.31160323183920013,0.2523040134168415,0.5513148982716256,0.30564477674062296,178.0,left
0.27060466868204003,0.1180751994406739,0.2374905425311482,0.14146830975822056,0.0821735435517752,0.16842252964564608,0.15981140477458666,0.26566008867495583,0.5881980467795422,0.14301064205005432,0.3157899532354449,0.24782688503800543,0.5654261059478642,0.30443616349011116,179.0,left
0.24725340838859466,0.1187855914512479,0.20985766865566902,0.13616289035041618,0.11883662311539922,0.19849603821267436,0.20799180098589432,0.2591801228945627,0.5961885990371947,0.14435491178028315,0.32117255533495026,0.24993379848247876,0.5667092761416086,0.31854791337611665,180.0,left
0.18131951492549092,0.1177201724957504,0.1882007770766556,0.13085747094330102,0.23135127847670134,0.19248248193867568,0.17038687978752165,0.27213799797642224,0.5912716062097338,0.1454299180383547,0.3223684360386798,0.2454566701036427,0.5631816269081824,0.3028221196189822,181.0,left
0.18543940234166456,0.11629972659546706,0.203883108534761,0.11847872023403028,0.1871047265499044,0.10827264891482002,0.09635631697780411,0.2483815509143099,0.5746771943291193,0.1346772959189746,0.3026318486946167,0.23860932679064817,0.5509942584088847,0.2919353860308256,182.0,left
0.1785703075130911,0.10546869981024098,0.203883108534761,0.09018539502747203,0.10745900711885525,0.027069594028553468,0.07403056280971754,0.19762558918063888,0.5599250454124736,0.13118250176470347,0.2840911420547485,0.2415061447043776,0.5288646111920077,0.2923392809289229,183.0,left
0.10439402341638271,0.09694602440826472,0.17326366568602225,0.06719748922803248,0.051832431742248275,0.0,0.06697950022711296,0.16198680562960277,0.5513211857899947,0.13172051680153452,0.28588496310964473,0.24361305814885093,0.5202048919258875,0.2850806906757697,184.0,left
0.09752754439014666,0.10262780800953575,0.16579582107848267,0.0875335271862916,0.0,0.028572983096758264,0.06228028365364935,0.13175039278709733,0.5525501413881742,0.13172051680153452,0.28827786345099327,0.24045293874543816,0.5269401612725328,0.30322601451739395,185.0,left
0.10851652663382083,0.10671163223813185,0.15683326980933998,0.10344810168357554,0.09481507160966629,0.12180601412895697,0.1057569878466822,0.15766819942891175,0.5605406936458266,0.14032261449708017,0.2703350971622882,0.22570404310711645,0.5246950714903171,0.2899189829834885,186.0,left
0.1318677869272662,0.10759953772109832,0.19492197944058987,0.09991227789556234,0.2161819262980842,0.18195589486095542,0.1833142008086739,0.24082193358395187,0.5580816120152043,0.13494604748344052,0.25000056946706195,0.2212269147282786,0.5211674222568909,0.28104865244235455,187.0,left
0.15109915980454502,0.1139913752120787,0.22927605568058596,0.14146830975822056,0.2161819262980842,0.15187952269598526,0.17861274651325942,0.26349872909525374,0.5476331485607133,0.12042987964532514,0.2619616543698058,0.2343954999017015,0.526619521409792,0.30201586554467674,188.0,left
0.1620881420482192,0.11789768596814287,0.19865519065687565,0.18302434162087877,0.19089646273099703,0.18045250579157113,0.1410100630368305,0.21922273314282847,0.5470186707616236,0.13763407503641645,0.2972492465951113,0.24045293874543816,0.53527862993338,0.30201586554467674,189.0,left
0.18406610653556044,0.11452425375026021,0.1852127859284245,0.18479225351523,0.18457449497689282,0.2797019566968757,0.16803727150033154,0.21922273314282847,0.5519356635890844,0.1502684700151633,0.31100529148710265,0.2428231536798009,0.5381656101836079,0.3100799420111908,190.0,left
0.14011017755980504,0.11647724006785953,0.1852127859284245,0.16092039176895767,0.12768641499121713,0.23909899745419239,0.14453671318911177,0.19762558918063888,0.5175167137958958,0.12365592223513033,0.2709330375139203,0.23650241334617483,0.5307890611114825,0.2895166238072804,191.0,left
0.1634614378532504,0.12801865886379815,0.21060573307424946,0.15296142079522212,0.09355115954929971,0.13533937934426632,0.0951815128346638,0.10151192346565097,0.45359463660367894,0.10403193894784124,0.23624452457460166,0.23650241334617483,0.5253363512160476,0.27983850346963735,192.0,left
0.2074173668290058,0.12606533442519474,0.23823718477475353,0.1564989283086753,0.12136444723711293,0.17142930778322807,0.10693402971268284,0.0323977724213691,0.4210191202082427,0.10672047840850496,0.24162712667457598,0.23755561930511426,0.5189223324746752,0.29395178907784825,193.0,left
0.12499869209869274,0.11026291604927163,0.18969406156270452,0.15561497236184252,0.11504247948202817,0.21353565609412328,0.11398285457241997,0.025917806640968877,0.4486776437757385,0.11881685835042255,0.23325368388209,0.2159598818803925,0.49967905476574437,0.26895176988148073,194.0,left
0.056318207024460776,0.1022727810647508,0.12546718471757856,0.12732164715528782,0.14032794304910823,0.14736935549019847,0.05170480864072147,0.051835613282790405,0.4837122418022801,0.12526894352982332,0.22129146004499134,0.2004210817728147,0.4862091268152362,0.26008067147908775,195.0,left
0.0,0.10422576738235012,0.12621382696060124,0.08399601967283843,0.18331058291653335,0.1172929833252283,0.0,0.0539969728624925,0.4763361673437174,0.11935487338725359,0.2320578031783569,0.20463490866196743,0.5006415850967478,0.2560486332459888,196.0,left
0.0,0.10511367286531748,0.16355447217327423,0.11405894049849508,0.11883662311539922,0.21353565609412328,0.024677600177220427,0.08747439683466496,0.4861701529991187,0.1241934253640622,0.24342094772946865,0.21569658039070916,0.5198842520631466,0.26370958267535016,197.0,left
0.08104276312293734,0.10511367286531748,0.166542463322088,0.16092039176895767,0.06447395980013937,0.24210577559177437,0.06697950022711296,0.12419077545673218,0.5316532144796717,0.13870959320217757,0.24162712667457598,0.2199104072796576,0.5224499817081014,0.2838705417030525,198.0,left
0.10439402341638271,0.10333820002010974,0.15384670083666308,0.14235226570505333,0.155499702680018,0.20451245808460783,0.08460603782173592,0.1306707412371324,0.5550080525850127,0.13682782034280905,0.2583728733251931,0.2193833027734886,0.5211674222568909,0.27540333819907126,199.0,left
0.11675891726742549,0.10546869981024098,0.18745413483363293,0.13085747094330102,0.23008736641634187,0.3112759907341811,0.1269101755935722,0.21058346426250552,0.5531646191872639,0.13655906877834312,0.28887580380262534,0.23334179241596154,0.5256576018213206,0.28911272890918305,200.0,left
0.1346143785373357,0.11612221312307458,0.21956686216842058,0.17683496626624162,0.17193296691900173,0.39849546549238113,0.175088334082929,0.2624190775452959,0.5531646191872639,0.13440854435451044,0.2948563462542282,0.23492210288106818,0.5301471706432181,0.2935478941797509,201.0,left
0.12499869209869274,0.11701011860604105,0.21956686216842058,0.2068962033671511,0.13400597529501113,0.3097754652639111,0.13395900045422593,0.19654388115174726,0.5470186707616236,0.11881685835042255,0.2942584059021307,0.22307052668307037,0.5269401612725328,0.2814517794795073,202.0,left
0.11263641404998737,0.11097296993898098,0.2255414222893286,0.18390829756840077,0.18204667085517912,0.27368553682494934,0.07403056280971754,0.1792653433902558,0.5636130826417549,0.1494622153217673,0.3068185700908579,0.2341321984118121,0.525978241684312,0.2899189829834885,203.0,left
0.07966946731790614,0.11949564534095725,0.23375590913989086,0.19009767292303437,0.1972184304860889,0.35940162251494456,0.09048229626120019,0.2602597744453661,0.5949596434390152,0.20698938354529872,0.32177049568658234,0.24598327308321366,0.5372030798526044,0.2862900717875423,204.0,left
0.14011017755980504,0.1255327940080173,0.2255414222893286,0.21131766682743347,0.15170555904663985,0.3939881618856944,0.11750950472469412,0.26349872909525374,0.5685300754692157,0.2091393960614436,0.31100529148710265,0.23702901632554152,0.5439383491992498,0.2911291319562057,205.0,left
0.18955928975675818,0.11789768596814287,0.2001498973184752,0.19982287206568472,0.19342428685271074,0.3969949400221111,0.11280805042927966,0.22138203624275832,0.5494765819584622,0.17096745956052573,0.2972492465951113,0.22570404310711645,0.5295058909177381,0.28790334779741045,206.0,left
0.17170382848685506,0.1180751994406739,0.22479478004630593,0.19540309233014952,0.2882417659136749,0.4330820048631381,0.14453671318911177,0.273219706005321,0.5986476806678169,0.14892471219262582,0.3044256697499783,0.23255188794690973,0.5186016926119361,0.30524241756441484,207.0,left
0.24038431356109413,0.12588782095280227,0.2845403812565692,0.2290001532190722,0.24905086222833717,0.4360887829995548,0.19859113011701623,0.31425469082892477,0.6127830109178056,0.15967733431200415,0.3181817146424386,0.24993379848247876,0.546824718707196,0.335079961207871,208.0,left
0.26236227804843537,0.12375698304194493,0.2628834896775558,0.22988579289134137,0.17951884673445306,0.4496221482148641,0.1880134173821375,0.26997869487565396,0.5580816120152043,0.1798388207284347,0.3205746149833182,0.24387635963874033,0.5718407354317687,0.30443616349011116,209.0,left
0.21703305326764166,0.12286941567970455,0.22106014665446594,0.2068962033671511,0.22250148660088342,0.4932347491918989,0.16568766321405093,0.2397422820331414,0.5402570741021506,0.17741903283223692,0.3086123911462231,0.23097157748180308,0.5509942584088847,0.2975807002741089,210.0,left
0.1936817929741963,0.12606533442519474,0.2374905425311482,0.2042443355259671,0.2591645661655022,0.4721815750364513,0.18096459252148378,0.25702081979463287,0.5777495833255273,0.16290286499412154,0.28887580380262534,0.22807475956807366,0.5275814409982633,0.3024197604427741,211.0,left
0.17307712429188626,0.11967349693421525,0.23076934016721395,0.18125642972721678,0.23893715829215267,0.4270684485891394,0.15041073390570858,0.26673974022492075,0.5888125245791116,0.16693516227732275,0.2799044206585073,0.22965456850637977,0.5333547907564373,0.2850806906757697,212.0,left
0.1799436033181223,0.11701011860604105,0.2008965395620841,0.1759510103194124,0.24146498241386638,0.4210548923151407,0.094006708690614,0.25702081979463287,0.5771351055259579,0.17042995643159387,0.29126756520961905,0.2341321984118121,0.5359205204013922,0.29838695434841433,213.0,left
0.17307712429188626,0.1225143887349196,0.20911102641264634,0.18479225351523,0.25410891792306245,0.4030084962961098,0.07285575866566774,0.19978489228140717,0.5531646191872639,0.15483878233519555,0.2942584059021307,0.23018167301254877,0.5230912614338319,0.2842744366011498,214.0,left
0.1469766565871069,0.12073857776884722,0.2374905425311482,0.15561497236184252,0.28571394179294884,0.40752152709983136,0.08695564610892603,0.11015119234597393,0.5076827281409741,0.14999971845069737,0.266148375766047,0.2254407416174331,0.5240537917648371,0.26370958267535016,215.0,left
0.0906584495615732,0.11363634826729285,0.20985766865566902,0.1388147581915966,0.30214720603193257,0.4255621959218274,0.08225642953546242,0.07127551062313842,0.48862923462974095,0.14919346375709175,0.23325368388209,0.2167497863496486,0.5256576018213206,0.2580642684320651,216.0,left
0.10439402341638271,0.11718763207843352,0.20164318180510676,0.17771892221376362,0.19216037479234416,0.3939881618856944,0.05052776677563742,0.09935262036572112,0.5248916178201952,0.14408564830812765,0.24880354982944297,0.21332586392975195,0.5275814409982633,0.2653228586852201,217.0,left
0.22390214809621511,0.12642036137011914,0.28603366574320077,0.24049494798151017,0.1415918551094748,0.37142873506294194,0.045828550202166696,0.16738711985919963,0.5918860840088236,0.16021483744114562,0.3062206297392258,0.23676571483585818,0.5532393481911004,0.30120961147005687,218.0,left
0.24725340838859466,0.1342333210032507,0.31142519071346797,0.26967222913489763,0.32111070184392787,0.3789485440042526,0.0916571004043405,0.23110301315281845,0.6047936290939369,0.1723117292909624,0.332535699886062,0.25256731490652484,0.5676711957300782,0.297983059450317,219.0,left
0.26236227804843537,0.1372513881553452,0.27483260991995806,0.25198974274326247,0.4020227407876291,0.4090220525701085,0.15863660063145346,0.2429812366838746,0.557467134215635,0.1405913660615461,0.3068185700908579,0.24967049699279542,0.5449002687877211,0.29717680537569713,220.0,left
0.2651088696595707,0.13032667212618332,0.2606421407723474,0.20336037957913788,0.2604284782258688,0.44661537007727503,0.1515855380488489,0.25054085401423265,0.5568526564165452,0.12849447421193894,0.28289526135101895,0.24045293874543816,0.5269401612725328,0.30120961147005687,221.0,left
0.1771970117080599,0.12695323990830065,0.25616228731362156,0.1980549601713335,0.23640933417142662,0.4511284008810037,0.10223257541635178,0.25702081979463287,0.5986476806678169,0.16854818357222534,0.2697371568106597,0.22596784612360032,0.525978241684312,0.2709674050675588,222.0,left
0.15384575141460743,0.12801865886379815,0.24719973604389622,0.2077801593139803,0.2983554698498594,0.3804490694745226,0.10458218370354189,0.2235433958224604,0.6047936290939369,0.17526850840840247,0.2691392164590276,0.22939126701669643,0.5218087019826214,0.2790322493953319,223.0,left
0.1607148462431809,0.1235794695694139,0.23599725804510285,0.18656016540889198,0.23261519053805557,0.3729349877302539,0.12338352544129805,0.28833688418711034,0.6109395775200568,0.14650543620432543,0.3002389483537371,0.2391359297702209,0.5388068899093383,0.29274164010513104,224.0,left
0.1799436033181223,0.12393483463520294,0.25541422289446203,0.20070682801251394,0.23135127847670134,0.5037613362696192,0.13160939216703582,0.3790502356725085,0.6404415344853014,0.15806431301731116,0.3175837742903411,0.2415061447043776,0.563502266771172,0.29637055130139167,225.0,left
0.208790662634037,0.13032667212618332,0.26512199423165583,0.20247642363230867,0.3603016055292727,0.5383478756403761,0.1269101755935722,0.2807772668567452,0.6318365044285592,0.17446225371479684,0.3050236101016104,0.2341321984118121,0.5490698084894099,0.29838695434841433,226.0,left
0.19505508878030042,0.12428986158012645,0.23973189143635665,0.16799372307111682,0.3565098693471995,0.44360859194086544,0.12220872129815774,0.22138203624275832,0.6078660180898652,0.1494622153217673,0.29904306765047295,0.22386093267892093,0.5288646111920077,0.28225803355412715,227.0,left
0.19917497619540114,0.11843056450632439,0.23226262465326286,0.17152954685912647,0.3109969979077505,0.4060152744336989,0.11750950472469412,0.36177169791101704,0.6263050338020086,0.14274189048559016,0.3074165104429589,0.2338683953955325,0.546824718707196,0.2959681921251853,228.0,left
0.18269281073052923,0.12340195609702143,0.22479478004630593,0.19628704827767152,0.33628246147483765,0.43158147939286806,0.11868430886783443,0.3887691561027964,0.6607239835951972,0.17096745956052573,0.3086123911462231,0.24045293874543816,0.5676711957300782,0.2947580431524681,229.0,left
0.18681269814669577,0.12748578032561664,0.22628806453235129,0.20159246768478667,0.2781280619774975,0.44360859194086544,0.15981140477458666,0.2872572326371454,0.6840811625685852,0.1795695572560696,0.31399499324619384,0.23860932679064817,0.564143546496652,0.2806447575442572,230.0,left
0.1771970117080599,0.1273082668530856,0.24495838713868778,0.20512829147279987,0.2781280619774975,0.46165498795872395,0.20211554254643005,0.3380131943699709,0.6877680293636033,0.16317212846627527,0.32775103813818873,0.24888059252353933,0.5596533669322223,0.2818549065169744,231.0,left
0.0906584495615732,0.11754265902335703,0.23151598241024018,0.17064559091160802,0.33375463735312394,0.4631555134290011,0.15041073390570858,0.3747316294718104,0.6625685874267297,0.16693516227732275,0.3122011721908322,0.2454566701036427,0.5493904483521508,0.2657259857223728,232.0,left
0.06730718926812784,0.10333820002010974,0.19118734604933252,0.09460685848775796,0.21744583835844367,0.356389117181493,0.07168095452252743,0.2678193917757241,0.6109395775200568,0.17016120486691833,0.2739238782069009,0.22438753565849368,0.5202048919258875,0.2608869255537076,233.0,left
0.0906584495615732,0.10049730821954395,0.17774494132088492,0.07869228399047401,0.16308317504318381,0.306768687126322,0.057578829358234884,0.21058346426250552,0.586354613382273,0.14166637231961765,0.24700972877408134,0.20911203704059744,0.5009622249597374,0.24274160171208337,234.0,left
0.13049449112116207,0.10635660529320745,0.20238982404812944,0.12290018369431266,0.32364093341693945,0.3969949400221111,0.08813045025205923,0.2235433958224604,0.6115540553191465,0.13440854435451044,0.257774932973561,0.2141162699256025,0.5163566028297204,0.2455642588337259,235.0,left
0.13736097014847104,0.11203838889447848,0.2255414222893286,0.1626883036633089,0.38305924497464616,0.4240616704515574,0.1057569878466822,0.25702081979463287,0.633066630461002,0.16505338941795422,0.28887580380262534,0.2254407416174331,0.5311097009742216,0.2778228682835593,236.0,left
0.12362539629366154,0.12286941567970455,0.23226262465326286,0.19628704827767152,0.3160550536014881,0.3097754652639111,0.11868430886783443,0.3034561188478335,0.6527346017713285,0.17661277813862952,0.31339705289409636,0.22623114761328367,0.5253363512160476,0.26814474794591625,237.0,left
0.21291316585147513,0.1283736858085831,0.2501863050165767,0.20336037957913788,0.3565098693471995,0.30225565632260043,0.1374856506065072,0.34341350859956066,0.6865390737654238,0.16236536186498007,0.32715309778655666,0.23070827599211974,0.5311097009742216,0.27983850346963735,238.0,left
0.2362644261449205,0.12695323990830065,0.2516795895032047,0.2068962033671511,0.400756421274977,0.47819513131045,0.16451285907000113,0.3574530917103189,0.6871523811307299,0.17123621112498988,0.332535699886062,0.23255188794690973,0.5426551790055054,0.29032287788190025,239.0,left
0.17033053268182385,0.13068169907110683,0.24645167162531934,0.20954975493377503,0.3603016055292727,0.5248145104250668,0.222091688428236,0.340174553949673,0.6533479091366345,0.17123621112498988,0.3229663763903119,0.22386093267892093,0.5346373502076478,0.27298380811458145,240.0,left
0.1318677869272662,0.12375698304194493,0.2255414222893286,0.16357225961014166,0.35524595728683295,0.4210548923151407,0.2573447636183914,0.2872572326371454,0.6281496376335411,0.1381720900732457,0.29904306765047295,0.21753969081869862,0.5234125120391067,0.25887129036762957,241.0,left
0.0906584495615732,0.11044042952180266,0.17625165683425337,0.12024831585313223,0.3628318371022843,0.3789485440042526,0.23971822602285187,0.2591801228945627,0.6213880409745478,0.14005386293261424,0.2948563462542282,0.20937533853048684,0.5237331519020962,0.23588690635702747,242.0,left
0.13049449112116207,0.11612221312307458,0.1971619061702441,0.1564989283086753,0.3375463735351971,0.41052830523742045,0.24441968031918293,0.28941859221600197,0.6244616004042598,0.17338673554903394,0.31339705289409636,0.21016574452633918,0.5256576018213206,0.2548384842732716,243.0,left
0.1634614378532504,0.12713075338069313,0.24570645155785087,0.20601224742031832,0.3944368609721778,0.46466176609631304,0.25264330932206036,0.31101573617819156,0.6367534972564997,0.17768829630439242,0.31519201288334386,0.21753969081869862,0.526619521409792,0.26209707452642483,244.0,left
0.12225210048863033,0.12588782095280227,0.22479478004630593,0.19893891611816272,0.4955763077882338,0.4842086875844487,0.21504062584563144,0.31101573617819156,0.6379836232884628,0.1618278587360482,0.3068185700908579,0.22465083714817702,0.5253363512160476,0.24516113179657317,245.0,left
0.12225210048863033,0.12606533442519474,0.20612445743996943,0.1794868341074256,0.5208593639030283,0.43158147939286806,0.15981140477458666,0.29481684996750346,0.6213880409745478,0.16397838315988267,0.3074165104429589,0.22754765506190644,0.5211674222568909,0.26370958267535016,246.0,left
0.12362539629366154,0.1278408072704016,0.22927605568058596,0.19363349671104757,0.4740825804032198,0.4045090217663798,0.14923592976257538,0.25594116824466795,0.613398659150679,0.17042995643159387,0.31519201288334386,0.22438753565849368,0.5346373502076478,0.25685488732029427,247.0,left
0.1648347336582816,0.12677572643590818,0.2696046920420727,0.2166230862352414,0.4348892692665842,0.43458825752927766,0.1868386132389972,0.3088564330774233,0.6281496376335411,0.1690856867011572,0.34330204301989653,0.24018913572916034,0.5606152865206937,0.2616931796280131,248.0,left
0.24588011258355635,0.1367185096171628,0.28976829913445457,0.22546432943105899,0.44879952428743763,0.4210548923151407,0.24206783431004197,0.3855302014520632,0.6429006161164033,0.17123621112498988,0.3726079538592444,0.2612582701743076,0.5724820151572487,0.2862900717875423,249.0,left
0.25549318322093484,0.1445311311294306,0.29051636355361765,0.23872703608715895,0.519593044391371,0.43158147939286806,0.28084755965155495,0.3477321148002588,0.633066630461002,0.16639765914818128,0.35287136651564666,0.25546463434684874,0.5638229066339129,0.2794353764324846,250.0,left
0.22939533131741996,0.14186809092212194,0.3009721993093919,0.2537576546376137,0.5474087395304821,0.5293218140329259,0.29142303466448993,0.3174957019585918,0.6275351598344514,0.16962370173798647,0.34748762548178647,0.246246574572897,0.5593327270694815,0.2733869351520486,251.0,left
0.22802203551131583,0.14754987452339297,0.2972375659175519,0.27055786880717037,0.5474087395304821,0.6045084490472661,0.3090495722591058,0.3855302014520632,0.6429006161164033,0.1868273852213882,0.38815781980706276,0.248617291033856,0.5689543659238225,0.2673384938712964,252.0,left
0.24999999999973,0.14843778000635943,0.2785672433112154,0.25640952247879767,0.5802752680094372,0.6165412887911259,0.35370108059618843,0.39740842498311935,0.6422861383168339,0.18548413930654029,0.3684212324629996,0.2541476253716315,0.561898456714438,0.2713712999656561,253.0,left
0.19917497619540114,0.13139209108168082,0.24645167162531934,0.1786028781605964,0.5474087395304821,0.6345876848101639,0.33489973885751567,0.273219706005321,0.599876636266476,0.1610216040424426,0.28887580380262534,0.24598327308321366,0.5243744316275762,0.272177554040276,254.0,left
0.13736097014847104,0.12020603735153124,0.23151598241024018,0.12113227180065067,0.477876724036598,0.603007923576989,0.23736861773657836,0.21382447539217253,0.578364061124617,0.15403201573390035,0.2703350971622882,0.22965456850637977,0.5086594138946037,0.2616931796280131,255.0,left
0.22390214809621511,0.12695323990830065,0.2696046920420727,0.17241350280595924,0.4879880205214775,0.47669460584017287,0.21621542998968835,0.3131750392781214,0.6201590853758887,0.16881693513669127,0.33791830198603634,0.24361305814885093,0.5452209086504602,0.29032287788190025,256.0,left
0.27197796448707123,0.13654133426563586,0.3069453372547457,0.25906307404541806,0.519593044391371,0.3639089261228037,0.253820351188061,0.3963287734331544,0.6527346017713285,0.174731005279261,0.40191386469905765,0.2638922881249499,0.5747271049394644,0.2955642972267718,257.0,left
0.24038431356109413,0.13547557718927283,0.3039587682820688,0.2581791180978996,0.5284428362671889,0.36842195692652524,0.23854342187971866,0.3758112810217753,0.6379836232884628,0.17258048085542832,0.3875598794549653,0.2559912373264215,0.5686337260610834,0.2842744366011498,258.0,left
0.2348911303398893,0.12855119928097647,0.27781917889263497,0.21485349061544667,0.5398204522637329,0.4571419571550024,0.23501900944938825,0.354212080580659,0.6269195116010984,0.1795695572560696,0.33732036163440426,0.24308645516948424,0.556446357561537,0.29032287788190025,259.0,left
0.20329747941283216,0.12908373969829245,0.2658700586502327,0.21220162277495547,0.544880915409756,0.49172849652575934,0.28672158036907547,0.38768950455283147,0.633066630461002,0.19166696101357594,0.3438999833715286,0.24413966112842367,0.5561257176987962,0.27540333819907126,260.0,left
0.22664873970628463,0.1356534287826694,0.2875269502292461,0.22458037348422621,0.4968378123972954,0.43909556113713677,0.3031733138205581,0.39740842498311935,0.6392125788871219,0.19542948291693385,0.3899527797963138,0.2609954702112205,0.569595645649553,0.2919353860308256,261.0,left
0.24588011258355635,0.1319246314989977,0.28304709677052386,0.2042443355259671,0.46649910803906636,0.4270684485891394,0.25969437190466493,0.3693313152413751,0.6361390194569303,0.1991930286356709,0.39832508365444497,0.2578348492812115,0.5708788158432974,0.2975807002741089,262.0,left
0.22939533131741996,0.12606533442519474,0.26139020519151046,0.19009767292303437,0.49936563651802146,0.44661537007727503,0.2643958262000794,0.34557281170032894,0.619544607576799,0.19139769754142044,0.3594498493188816,0.23860932679064817,0.552276817860097,0.27500021116191853,263.0,left
0.25411988741589653,0.1399151046045226,0.29350293252629456,0.26967222913489763,0.5524643877729218,0.45864820982231436,0.3149235929757097,0.340174553949673,0.6158565703475176,0.1534945126049685,0.3427029637339096,0.2407162402351215,0.5500317280778813,0.27540333819907126,264.0,left
0.3090647986353261,0.15305380653126832,0.32785700876629065,0.31653368040536023,0.6030305000035128,0.5142879233473465,0.34430040972639375,0.34665246325029386,0.6238471226051701,0.13736532347195052,0.3672253517597355,0.2507242044783293,0.5721613752945096,0.29516193805056545,265.0,left
0.37500130790076724,0.14169023932872538,0.32785700876629065,0.20336037957913788,0.652335107625035,0.6045084490472661,0.4007066726634463,0.4114480080938776,0.6478176089438676,0.1690856867011572,0.39952210329206395,0.26626250305931265,0.5833868242055846,0.3330650938827393,266.0,left
0.32966946731763613,0.13068169907110683,0.3009721993093919,0.1564989283086753,0.6131466113919757,0.6135345106547163,0.4136317559626477,0.4589650151768154,0.6582660723983587,0.17338673554903394,0.400120043643696,0.2736369508784744,0.5795379243668854,0.3145166430039623,267.0,left
0.2967025205855549,0.1422231178669069,0.3009721993093919,0.2785151560561552,0.5031597801513996,0.5609015752661008,0.33842638900979694,0.3563713836814273,0.6281496376335411,0.1422043873564487,0.35765602826351994,0.25967846123600324,0.5654261059478642,0.2838705417030525,268.0,left
0.3228029882914001,0.1548296174973398,0.3412994134947418,0.35985762416236966,0.5271813316581202,0.5082686398774783,0.269095042773543,0.2235433958224604,0.5851256577836104,0.1551075338998711,0.3104062122015847,0.24413966112842367,0.5407313398288132,0.2875002207602577,269.0,left
0.25411988741589653,0.14985788778577813,0.333084926644176,0.3324482549026442,0.6472794593825881,0.44060181380327634,0.2585195677615246,0.2170634300420602,0.5580816120152043,0.16774192887861972,0.2978471869467434,0.2357120073503225,0.5330335401511643,0.26330645563819743,270.0,left
0.21016395844014113,0.14541903661239708,0.3203877419831933,0.3200711879188134,0.6738288350100419,0.43158147939286806,0.28437197208188536,0.264580437124998,0.5507067079904253,0.14999971845069737,0.316387893587077,0.24176944619406093,0.5420138992800254,0.2653228586852201,271.0,left
0.24313090517115654,0.14985788778577813,0.3256156598610822,0.3412911818239053,0.6295798756309594,0.46466176609631304,0.32667610985372875,0.2591801228945627,0.5568526564165452,0.1642471347243486,0.3062206297392258,0.24308645516948424,0.5404100892232897,0.2713712999656561,272.0,left
0.28846274575428055,0.1511008202136681,0.32710894434712756,0.3404072258770725,0.6573955707710581,0.4496221482148641,0.33489973885751567,0.2203023846927934,0.5457885447291808,0.1658601560192512,0.2739238782069009,0.23729231781543092,0.5221293418453623,0.2572580143574452,273.0,left
0.30357161541412836,0.1511008202136681,0.3487686802778356,0.33863763025728133,0.6637175385251552,0.44360859194086544,0.3513514723089983,0.24730189936350655,0.5224337066233566,0.1370965719074846,0.2864829034617422,0.24361305814885093,0.5169978825554509,0.2697580239557862,274.0,left
0.29120933736435006,0.15767050929804505,0.3547418182231894,0.35985762416236966,0.5474087395304821,0.47067532237031173,0.38777935164228694,0.3606920463610521,0.5531646191872639,0.15107523661646027,0.32476133637956295,0.2515141089475854,0.547465998432676,0.27983850346963735,275.0,left
0.32005639668026475,0.16228721206468322,0.3442859824674187,0.36339344795038286,0.5385589476546642,0.4631555134290011,0.38542974335509683,0.38012988722247343,0.5925005618079133,0.18521487583417517,0.33732036163440426,0.2617848731538803,0.5718407354317687,0.29999946249733966,276.0,left
0.2815936509257071,0.15021291473070164,0.3263637242796591,0.31034430505072663,0.6599233948917842,0.4360887829995548,0.3513514723089983,0.28833688418711034,0.5691445532687851,0.1755372599728684,0.316387893587077,0.2586252552770638,0.5593327270694815,0.29274164010513104,277.0,left
0.2362644261449205,0.1408023338457589,0.329350293252336,0.2935457746066099,0.7130221461466775,0.4496221482148641,0.3490018640227248,0.3131750392781214,0.5685300754692157,0.16129035560690674,0.3187796549940707,0.24835348801737211,0.5570876372872675,0.27540333819907126,278.0,left
0.25549318322093484,0.1468398206336845,0.3480206158586725,0.32183909981316816,0.6548677466493373,0.4691747969000346,0.38660454749915374,0.42116692852501103,0.6084816663232182,0.17258048085542832,0.3337315805897916,0.25256731490652484,0.5676711957300782,0.2931455350035428,279.0,left
0.14423006497597157,0.14169023932872538,0.29350293252629456,0.25198974274326247,0.5663698278911795,0.4601487352925844,0.4065806933800431,0.40604769386428785,0.5697590310678748,0.16693516227732275,0.28887580380262534,0.23650241334617483,0.5349579900703887,0.2616931796280131,280.0,left
0.07005378087926317,0.12659821296337626,0.2524276539217851,0.19451745265788034,0.47534408501228853,0.4255621959218274,0.39952963079835513,0.3196550050585145,0.5138286765666145,0.14811794559132885,0.24401888808156968,0.22096361323859526,0.4993584149030035,0.2419353476377779,281.0,left
0.1909325855628623,0.13405546940985502,0.2912615836210861,0.2714418247546888,0.5183315397823023,0.4120288307076976,0.42185762268838545,0.38012988722247343,0.5752916721286887,0.14999971845069737,0.282296182065501,0.23992583423927094,0.5240537917648371,0.26693536683414365,282.0,left
0.25961568643836586,0.14843778000635943,0.3188944574965653,0.32095514386564616,0.6460179547735265,0.5037613362696192,0.4970629896412433,0.5205195488907322,0.641670490083964,0.1723117292909624,0.32715309778655666,0.25098750596801267,0.5516355381343665,0.2770158463479948,283.0,left
0.2060440710239746,0.14328819870153975,0.2882750146484092,0.2687882731880684,0.614412930903633,0.5939875891654083,0.5029392480807076,0.5075596173299388,0.622618167006511,0.17607527500969944,0.3122011721908322,0.2304449745022321,0.5179598021436718,0.27741897338514754,284.0,left
0.13049449112116207,0.13778426669352672,0.25765557179967047,0.22546432943105899,0.5398204522637329,0.5142879233473465,0.414806560105788,0.3887691561027964,0.6023345474633146,0.1470429393332573,0.29545428660586026,0.2088487355509141,0.4772287676863751,0.25524161131042433,285.0,left
0.17033053268182385,0.14754987452339297,0.30171741937686036,0.2723257807015216,0.5423482763854466,0.42255541778541783,0.4124569518195145,0.3790502356725085,0.6072515402907754,0.1470429393332573,0.31339705289409636,0.22675775059265035,0.5006415850967478,0.26814474794591625,286.0,left
0.2568690948272305,0.15252160423495553,0.3487686802778356,0.3642790876226556,0.5714254761336193,0.46766854423272264,0.4383093561398681,0.39956978456282144,0.6035646734957574,0.15887107961860814,0.32356431674194397,0.24651037758938266,0.5359205204013922,0.2870970937227906,287.0,left
0.2568690948272305,0.14701699598521145,0.3510071848313494,0.4049511635384846,0.5891250598852551,0.4962415273294809,0.38542974335509683,0.3498934743799609,0.6084816663232182,0.14327939361452025,0.3122011721908322,0.23650241334617483,0.5311097009742216,0.2766127193108421,288.0,left
0.2692313728770088,0.14666196904028794,0.3637043694923321,0.3881509493689279,0.5562585314062929,0.44360859194086544,0.37602907248621875,0.3509731259299258,0.6324521526619122,0.15295700947582702,0.3223684360386798,0.2391359297702209,0.5288646111920077,0.297983059450317,289.0,left
0.2774737635106135,0.1495028608409923,0.3510071848313494,0.35632180037435646,0.5082154283938394,0.41052830523742045,0.4089303016672332,0.3952491218831966,0.6361390194569303,0.17930131759929502,0.34509586407479276,0.24598327308321366,0.5426551790055054,0.29153149113241383,290.0,left
0.2815936509257071,0.15039076632395965,0.331591642157548,0.3527859765863468,0.5613141796487398,0.4000017181597002,0.38542974335509683,0.3855302014520632,0.6127830109178056,0.16209661030051414,0.33492860022741056,0.2407162402351215,0.5368824399898635,0.2790322493953319,291.0,left
0.2815936509257071,0.14985788778577813,0.3405513490755787,0.37665783833192634,0.6498072835043018,0.3774422913369406,0.36662840161734067,0.37149061834215047,0.599876636266476,0.14032261449708017,0.32177049568658234,0.2396625327495876,0.5381656101836079,0.2947580431524681,292.0,left
0.2651088696595707,0.1495028608409923,0.3286022288337591,0.40848698732649424,0.6321076997526731,0.3759417658666635,0.41010734353231726,0.4481643867167904,0.633066630461002,0.16209661030051414,0.3540672472193762,0.24466676563459266,0.5622190965771772,0.29274164010513104,293.0,left
0.3008250238029859,0.15198872569677402,0.32487043979361374,0.41909782614210656,0.6232579078768552,0.4120288307076976,0.45828550202168117,0.5539949163831324,0.6619529391933767,0.18145133011543813,0.3953353818958192,0.2501970999721621,0.5686337260610834,0.3024197604427741,294.0,left
0.2967025205855549,0.15234375264155897,0.3420474779133187,0.3793113898985503,0.6182022596344154,0.43909556113713677,0.4606351103079547,0.5162009426900411,0.6336811082600917,0.1583330645817771,0.38038231736620887,0.24440346414470326,0.5567669974245266,0.2959681921251853,295.0,left
0.26236227804843537,0.14648411744702994,0.3420474779133187,0.34482868933735844,0.5688976520128932,0.4090220525701085,0.4606351103079547,0.3898488076527613,0.6072515402907754,0.12956999237770006,0.3504784661747635,0.2388726282803315,0.5593327270694815,0.2947580431524681,296.0,left
0.25411988741589653,0.14328819870153975,0.31366653961867996,0.3368697183629301,0.5499365636521958,0.3774422913369406,0.49353633948896913,0.36501065256175025,0.6281496376335411,0.1419351238842932,0.365430391770488,0.23360509390584916,0.5667092761416086,0.30685492571334017,297.0,left
0.22527544390124632,0.14541903661239708,0.294248152593763,0.33156429895581496,0.5714254761336193,0.4496221482148641,0.5111651148064524,0.39956978456282144,0.6502766905744899,0.177150281267771,0.3761967349038535,0.21912000128380527,0.5545219076423109,0.2806447575442572,298.0,left
0.2225262364888465,0.1436432256463247,0.31142519071346797,0.315649724458531,0.5474087395304821,0.5699276368735511,0.5205635479533797,0.43736787121462584,0.6410560122848707,0.17876381447036316,0.35765602826351994,0.22517744012774976,0.5503523679406221,0.2842744366011498,299.0,left
0.20054827200150527,0.1425781448118304,0.30918668615995415,0.3333338945749169,0.5613141796487398,0.5879683056955471,0.5076384646541712,0.4740842498375386,0.6478176089438676,0.16317212846627527,0.36004778967051365,0.23518540437075153,0.5631816269081824,0.29153149113241383,300.0,left
0.16758132526941694,0.14133521238394042,0.2852884456757323,0.3740042867653024,0.599241171273718,0.4932347491918989,0.43478270598759394,0.4427640724863551,0.6705579692501189,0.1693549501735223,0.3624406900118622,0.221490216218168,0.5554838272305318,0.2733869351520486,301.0,left
0.15247245560957623,0.1361863073208509,0.2696046920420727,0.36516472729561755,0.5537258923819905,0.44060181380327634,0.38542974335509683,0.3984880765339298,0.650889997939796,0.17016120486691833,0.33911532162365177,0.21148225197496018,0.5397688094978097,0.27056427803040606,302.0,left
0.09615424858404253,0.1305041855985758,0.2681114075554447,0.3271445192202833,0.5537258923819905,0.3819553221406622,0.39012895992856045,0.3898488076527613,0.6220025187736375,0.1502684700151633,0.3223684360386798,0.21253595946049586,0.5391275297720792,0.2653228586852201,303.0,left
0.12912119531613087,0.13085955066436483,0.28603366574320077,0.30946034910389386,0.5170652202696573,0.27518892589315413,0.4042310850937696,0.34341350859956066,0.606022584692596,0.14112886919068757,0.32177049568658234,0.2149061743948586,0.5291852510547468,0.2725806810774287,304.0,left
0.19642838458533163,0.14098018543901691,0.295744281431503,0.33156429895581496,0.40960621315079493,0.33834844835949696,0.43125829355726353,0.25594116824466795,0.5820520983538984,0.15725805832370554,0.3175837742903411,0.2146428729049692,0.5323922604254339,0.27056427803040606,305.0,left
0.208790662634037,0.14790490146817792,0.3076934016733226,0.3421751377707345,0.465232788527409,0.41353508337383005,0.45593589373449106,0.2267823504731865,0.5765206277268682,0.17258048085542832,0.316387893587077,0.21516947588454194,0.5477866382956655,0.26814474794591625,306.0,left
0.21153725424517233,0.1399151046045226,0.3256156598610822,0.3200711879188134,0.6030305000035128,0.24661594279756827,0.4030562809506364,0.2429812366838746,0.6029490252624043,0.1690856867011572,0.32595721708282355,0.21253595946049586,0.5221293418453623,0.2814517794795073,307.0,left
0.17445042009691747,0.12979413170886644,0.3039587682820688,0.314765768511009,0.5474087395304821,0.20150567994701873,0.3631017514650665,0.26566008867495583,0.6140131369497688,0.1674731773141538,0.36363657071512634,0.21200935648112917,0.4897367760486624,0.27298380811458145,308.0,left
0.2197796448787841,0.13476552329956348,0.295744281431503,0.3236070117068266,0.47028843676984877,0.38947513108197285,0.43478270598759394,0.30777678152745835,0.6201590853758887,0.1618278587360482,0.4031097454027872,0.228338061057757,0.4813983073878152,0.28911272890918305,309.0,left
0.24999999999973,0.13547557718927283,0.292754868107135,0.2873563992519763,0.5524643877729218,0.36691570425921327,0.4453581810005218,0.28185897488564393,0.6140131369497688,0.1543007672985759,0.3869619391033332,0.22675775059265035,0.4550991204694981,0.2947580431524681,310.0,left
0.19642838458533163,0.12713075338069313,0.27781917889263497,0.25198974274326247,0.523387188024742,0.263158949747222,0.3713276181908043,0.2041034984821053,0.5869690911813628,0.1647846378534883,0.3666274114081034,0.21385296843591917,0.4342526434466141,0.2806447575442572,311.0,left
0.22939533131741996,0.13263502350957168,0.29873085040418346,0.2873563992519763,0.41972232453925784,0.3789485440042526,0.3983548266543053,0.24730189936350655,0.6047936290939369,0.17768829630439242,0.4186607502840296,0.2330784909262782,0.4608724702276721,0.30645103081524283,312.0,left
0.28708683414691194,0.1399151046045226,0.3144146040378395,0.3183015922990222,0.45891082077231715,0.4541351790185857,0.5381923232699464,0.34665246325029386,0.6441295717145863,0.17392475058565537,0.46650736776417645,0.25177741043726876,0.47690812782338554,0.316531510329094,313.0,left
0.31868048507396907,0.13796144204505367,0.31142519071346797,0.2979655543414559,0.5208593639030283,0.3939881618856944,0.6756779738764465,0.35853274326028384,0.6355245416578406,0.17096745956052573,0.44856460147547494,0.25098750596801267,0.4656832896550931,0.316531510329094,314.0,left
0.31730718926893076,0.13884934752815958,0.3144146040378395,0.2944297305534427,0.5069539237847707,0.32030205234163134,0.7144532237740648,0.3552917321306168,0.651505646173149,0.17419350215033091,0.43062183518723884,0.24703698056874934,0.4685696591627888,0.31250023995662524,315.0,left
0.3008250238029859,0.14754987452339297,0.33383014671164446,0.3200711879188134,0.5107432525155531,0.27067875868736024,0.688603057175655,0.3941694703332317,0.6889969849622624,0.1698924533024524,0.447965522189957,0.24387635963874033,0.47113538880774364,0.3104838369096026,316.0,left
0.2967025205855549,0.15127867180706467,0.34279269798078715,0.3236070117068266,0.5018934606397352,0.31428849606763265,0.6991785321885828,0.3952491218831966,0.6527346017713285,0.1731179839843584,0.45335040215770306,0.24598327308321366,0.456702930526232,0.3342737071332511,317.0,left
0.2651088696595707,0.14896998230281078,0.31665310859135687,0.3271445192202833,0.4475332047757732,0.38346157480797416,0.6968289239013927,0.3606920463610521,0.6392125788871219,0.1903226912833489,0.4521522435861982,0.246773679079066,0.45285403068728236,0.32177446539617094,318.0,left
0.2967025205855549,0.14879280695128383,0.31366653961867996,0.3236070117068266,0.4791382286456667,0.4045090217663798,0.6439515488394889,0.3920101672324634,0.678549691941555,0.18924768502527733,0.4360044372867442,0.24334975665916758,0.4506095516476005,0.3193541674507365,319.0,left
0.3145605976577954,0.14843778000635943,0.3076934016733226,0.2935457746066099,0.5436145958971039,0.42255541778541783,0.6239731652357321,0.41900762542424275,0.651505646173149,0.16559140445478526,0.3851681180479716,0.23070827599211974,0.43200755366439836,0.3225807194704764,320.0,left
0.25411988741589653,0.14879280695128383,0.28379516118910075,0.3359857624161009,0.5069539237847707,0.356389117181493,0.6263227735220056,0.34341350859956066,0.6023345474633146,0.1698924533024524,0.3893537005103269,0.22359712966264134,0.42944182401944353,0.30080571657195954,321.0,left
0.24450420097726067,0.14666196904028794,0.29873085040418346,0.3996474278568094,0.4955763077882338,0.2827087348344648,0.5981229986373222,0.2937371984167001,0.6441295717145863,0.20134406496719315,0.47129089057816387,0.23860932679064817,0.456702930526232,0.32177446539617094,322.0,left
0.25824239063333465,0.14808275306157448,0.3188944574965653,0.3607432638346424,0.5158037156605886,0.3639089261228037,0.6192739486622685,0.36285134946098196,0.7006755744487165,0.20887115640466725,0.5113631445513462,0.24387635963874033,0.48268086683902567,0.3318549449100221,323.0,left
0.2815936509257071,0.14932500924759662,0.31142519071346797,0.2970815983946231,0.48925434003314194,0.43158147939286806,0.6686246735718981,0.40928870499395487,0.6797786475402141,0.20134406496719315,0.4832542533491484,0.23255188794690973,0.4842846768957614,0.3193541674507365,324.0,left
0.2568690948272305,0.13867217217663175,0.28304709677052386,0.2970815983946231,0.48040454815732403,0.3759417658666635,0.6157472985099872,0.3131750392781214,0.643515093915493,0.20349407748333803,0.456338964982443,0.22307052668307037,0.46792776869452446,0.3120963450585279,325.0,left
0.18818599395172697,0.13689636121055937,0.27781917889263497,0.30946034910389386,0.5423482763854466,0.3939881618856944,0.5734453984601018,0.25377980866496586,0.6631818947920358,0.2026883346976316,0.4653114870604469,0.22017370876934095,0.4656832896550931,0.30564477674062296,326.0,left
0.24999999999973,0.1511008202136681,0.3300983576714991,0.3333338945749169,0.5941855230312783,0.44360859194086544,0.5616928815820827,0.3315352850685045,0.6926861926253274,0.2016123046239695,0.4784684526669203,0.2320247834407425,0.4685696591627888,0.3249994816940198,327.0,left
0.28846274575428055,0.14808275306157448,0.329350293252336,0.3227230557599974,0.5714254761336193,0.3639089261228037,0.43595751013072714,0.3596123948110872,0.6570371167996996,0.2048383472137747,0.45335040215770306,0.2272843535722231,0.43810154328531326,0.30524241756441484,328.0,left
0.25411988741589653,0.13263502350957168,0.27707111447347543,0.2546416105844429,0.5132710766362791,0.32030205234163134,0.36427879333015056,0.30561542194775626,0.6207735631749784,0.19542948291693385,0.42165159097700666,0.21358966694602977,0.4166131757941667,0.2919353860308256,329.0,left
0.2637355738545395,0.13707421280381737,0.2822990323513608,0.25640952247879767,0.5044212847604683,0.37443551320052393,0.4606351103079547,0.32073465660847944,0.650889997939796,0.18413986957610362,0.45155544216845556,0.23097157748180308,0.45638229066324243,0.32741977963945423,330.0,left
0.3214296924863689,0.15092364486214116,0.3174011730105164,0.32626056327345054,0.5575200360153616,0.44060181380327634,0.5487677982828743,0.4546464089761173,0.7019045300473792,0.20403260442785864,0.5328958308180773,0.25362102239205875,0.49967905476574437,0.33266119898432756,331.0,left
0.40659495882674435,0.15305380653126832,0.33084357773896755,0.34306077744369645,0.5436145958971039,0.4511284008810037,0.5405419315571365,0.5356387835514553,0.7350933538081215,0.23360244323323087,0.5592097620310277,0.2578348492812115,0.49967905476574437,0.3415315295254615,332.0,left
0.40796563883051107,0.15358668506944984,0.31665310859135687,0.31122826099755585,0.4867265159124159,0.47669460584017287,0.5358427149836729,0.4848807653388576,0.7154253824977985,0.22741962152619521,0.4964112189556218,0.24361305814885093,0.4813983073878152,0.3435479325727968,333.0,left
0.3708788046833291,0.15252160423495553,0.29798278598502037,0.3085763931563754,0.5600478601370753,0.5473682100507915,0.594596348485048,0.4740842498375386,0.6877680293636033,0.20403260442785864,0.45514308427870986,0.22991786999626918,0.47049349833972975,0.32903228778837956,334.0,left
0.311814006047733,0.13760641510026872,0.2628834896775558,0.2935457746066099,0.6321076997526731,0.5248145104250668,0.5981229986373222,0.48164386716789664,0.7012888818140262,0.2016123046239695,0.46650736776417645,0.22307052668307037,0.46151374995340255,0.31370885320745323,335.0,left
0.22664873970628463,0.12997164518139748,0.2240481378027006,0.2546416105844429,0.5423482763854466,0.4902279710554822,0.5393648896911358,0.4168483223243129,0.6840811625685852,0.20188156809633462,0.4659082884781931,0.2083221325715474,0.45285403068728236,0.28104865244235455,336.0,left
0.3269228757075737,0.14382107723972126,0.27483260991995806,0.3085763931563754,0.4399497324116197,0.5548880189921022,0.5475907564168736,0.3963287734331544,0.6527346017713285,0.19865552550652943,0.4593298056749546,0.21806679532486584,0.4640794795983574,0.3100799420111908,337.0,left
0.4326954265325966,0.15411956360763135,0.3517552492505125,0.4093726269994562,0.5069539237847707,0.6060147017134057,0.5734453984601018,0.4200893334539799,0.6656421468564417,0.19758051924845788,0.47727257196365613,0.2341321984118121,0.4846053167585005,0.3411291703492534,338.0,left
0.36400970985475567,0.1505679416754866,0.35698316712839784,0.41732991424775534,0.6308461951436044,0.5669151315400995,0.5417144979783259,0.38337089835214044,0.6773183954753286,0.18467737270524331,0.4802634126561678,0.22702105208253975,0.4884542165974519,0.3249994816940198,339.0,left
0.30357161541412836,0.14932500924759662,0.31366653961867996,0.35808971226801845,0.6485457788952402,0.5293218140329259,0.5182139396661896,0.3639310010117853,0.6760894398771491,0.17284923241989425,0.4730858505674149,0.22623114761328367,0.48524659648423274,0.32741977963945423,340.0,left
0.27472455609820656,0.15198872569677402,0.2673633431368643,0.32979638706146375,0.5865972357645219,0.5112811452109298,0.5464181899956841,0.40280873921355465,0.6945284555888129,0.17096745956052573,0.4724890491496687,0.22096361323859526,0.48588848695224485,0.3177416593018112,341.0,left
0.28708683414691194,0.14914783389606878,0.27483260991995806,0.3253749236011778,0.5271813316581202,0.5052618617398963,0.5675691400206304,0.3920101672324634,0.6976020150190045,0.1551075338998711,0.4587330042572084,0.20647852061675742,0.4753043177669003,0.31411274810555057,342.0,left
0.35989243824092654,0.14896998230281078,0.30171741937686036,0.3342178505224389,0.5069539237847707,0.5413546537767928,0.5616928815820827,0.40388839076351957,0.6859234255320708,0.14354814517898618,0.4569380442679609,0.20963914154676644,0.4640794795983574,0.3145166430039623,343.0,left
0.42032791688028937,0.15092364486214116,0.30246548379543725,0.3678149114106688,0.5107432525155531,0.5699276368735511,0.5687417064418199,0.505400314230009,0.7031334856455587,0.1779570478690662,0.46411560635718274,0.22386093267892093,0.4717766685334741,0.3120963450585279,344.0,left
0.3846169943394031,0.14861495535788727,0.2912615836210861,0.3881509493689279,0.5334984845096287,0.5699276368735511,0.5734453984601018,0.5237605600203992,0.7154253824977985,0.20779512633121655,0.46112476566420213,0.223333828172958,0.48203958711354566,0.326209630666737,345.0,left
0.2802203551206759,0.14861495535788727,0.2696046920420727,0.3828472136865635,0.523387188024742,0.5067681144072083,0.531139022965391,0.4082090534431444,0.695757411187472,0.19086019441228075,0.4659082884781931,0.2141162699256025,0.4890954963229319,0.30685492571334017,346.0,left
0.2815936509257071,0.15163369875184962,0.27632589440600697,0.37312201454391314,0.4854601963997638,0.4150356088441072,0.5099880729404447,0.3228939597092477,0.6681000580532803,0.16854818357222534,0.46889912917117016,0.21121895048527684,0.4868504065407162,0.29637055130139167,347.0,left
0.311814006047733,0.14435395577790278,0.29947607047164837,0.35455388848000524,0.5056876042731133,0.42255541778541783,0.5064658982329888,0.3002171641971003,0.6269195116010984,0.1642471347243486,0.42643511379099763,0.19910407279759568,0.4640794795983574,0.29435414825405637,348.0,left
0.2692313728770088,0.13387795593746254,0.28379516118910075,0.3253749236011778,0.530970660387915,0.5203014796213452,0.48531047276322425,0.2840182779864122,0.6023345474633146,0.1642471347243486,0.3666274114081034,0.19041311752960688,0.44355364243821427,0.29153149113241383,349.0,left
0.2939559289754854,0.13867217217663175,0.2822990323513608,0.29973514996124706,0.4955763077882338,0.568421384206232,0.5229131562396532,0.34233385704959574,0.6250760782033495,0.1642471347243486,0.3893537005103269,0.21516947588454194,0.457344210251712,0.3249994816940198,350.0,left
0.4120881420479492,0.15607254992523067,0.43241252197232427,0.4350124006393905,0.7155499702683912,0.724813937705953,0.7038777487620465,0.6619888621089558,0.30116668851476547,0.1486559606281599,0.29126756520961905,0.2609954702112205,0.5991012311960251,0.33951666220032806,1.0,right
0.4423058813676306,0.1653052792169154,0.4227019062840185,0.4535805267032984,0.6940562428833843,0.7639077806833967,0.7602817739762315,0.6673891763385527,0.29686534392017805,0.15752680988817147,0.3145929335978259,0.27126673594411166,0.6112892104381054,0.34879088763987376,2.0,right
0.4381886097538015,0.15642757687015418,0.4025382991916331,0.4164442745754826,0.6611848995008458,0.7263144631762231,0.7050547906271376,0.5853150937343159,0.27842632820803104,0.15806431301731116,0.31339705289409636,0.26942312398932167,0.6151381102768045,0.3375002591533054,3.0,right
0.3956033607818057,0.1473720229299964,0.4025382991916331,0.41556200235409335,0.6915284187616706,0.7609010025458076,0.6921297073279291,0.5323977724217883,0.25937283469727745,0.15456951886304182,0.31399499324619384,0.26968592395240876,0.6067990308736739,0.335079961207871,4.0,right
0.36263902985098895,0.14843778000635943,0.41299413494740733,0.42705511339040214,0.7294554103866489,0.7443608591940887,0.7203294822135291,0.4805621591381595,0.22864075169910691,0.16075234057007748,0.3020339083429846,0.26784231199761876,0.604875191696733,0.3415315295254615,5.0,right
0.3434076569737101,0.1511008202136681,0.404031583677682,0.41909782614210656,0.6801508027651266,0.6436080192205722,0.6756779738764465,0.3747316294718104,0.20282683196314366,0.14247313892091462,0.2709330375139203,0.2588880552401509,0.6026301019145173,0.3229830786466845,6.0,right
0.3956033607818057,0.14861495535788727,0.4010450147050051,0.3996474278568094,0.652335107625035,0.6345876848101639,0.6721513237241723,0.3920101672324634,0.19422180190640148,0.12311790719829929,0.266148375766047,0.2746901568374138,0.6071202814789469,0.3491932468160819,7.0,right
0.4395592897575682,0.1477270498749208,0.40627293258289043,0.4067190754328358,0.6776229786434129,0.6751877804537472,0.7262057406520839,0.5356387835514553,0.22495388490408885,0.14139762075515172,0.3044256697499783,0.2962858942621338,0.6321362982035215,0.3741932660124476,8.0,right
0.513738189655534,0.1551846444422642,0.43166445755374383,0.44562323945431004,0.6460179547735265,0.6150350361249863,0.7121036154877913,0.582074082604656,0.27227920934812744,0.14838720906369396,0.32356431674194397,0.30181673012650556,0.6478507051939602,0.3681455925929562,9.0,right
0.5522009354100916,0.1686790495556636,0.4622839004018999,0.48983113915815224,0.6295798756309594,0.5518812408545131,0.6874260153105709,0.5388797946811223,0.27842632820803104,0.13844084163771164,0.3175837742903411,0.30576775705236514,0.6391915966703738,0.38024247515414444,10.0,right
0.4532974794136422,0.16992198198355446,0.43465102652642074,0.4986740660794098,0.6991118911258241,0.5759411931475498,0.6651024988644352,0.5345570755217182,0.2716647315490377,0.14973096688623144,0.3385173812715543,0.29891991221277614,0.633738886774939,0.3737909068362395,11.0,right
0.4271970117077899,0.15500746909073637,0.39283052785444283,0.47745238844887794,0.7307169149957176,0.5654146060698224,0.5922467401978508,0.5377980866513852,0.27535276877831905,0.1543007672985759,0.35526312792264036,0.29049225843467497,0.6388703460651008,0.3705643548165014,12.0,right
0.46291316585227804,0.1548296174973398,0.4002997946375366,0.48806322726449025,0.6940562428833843,0.5518812408545131,0.6028222152107858,0.5550766244128766,0.2630608719260792,0.13951584789578497,0.3486846451194019,0.293652879364684,0.6440018053550105,0.36612918954593354,13.0,right
0.431319514925228,0.16335229289931608,0.4115008504607758,0.49248469072477263,0.6877342751282995,0.619548066928715,0.6933022737491186,0.5561583324417683,0.23294326672748156,0.129838743942166,0.34210502338227755,0.29233587038946496,0.6343801665006694,0.3588713671537249,14.0,right
0.36400970985475567,0.15500746909073637,0.37714677422078324,0.446508879127272,0.6750951545226869,0.6616544152396102,0.7038777487620465,0.4686839356071033,0.20897278038878397,0.13736532347195052,0.31698583393870905,0.28601462852924264,0.6112892104381054,0.35846747225531317,15.0,right
0.2829669467318183,0.14701699598521145,0.3375647801029018,0.42351928960238894,0.6447516352618621,0.5924813364992687,0.6756779738764465,0.3898488076527613,0.1886903312793713,0.13145125332937901,0.2655504354144149,0.27442735687432496,0.5997437324068216,0.31854791337611665,16.0,right
0.2925826331704542,0.153231658124664,0.34279269798078715,0.45888426238497004,0.6624512190134979,0.5338348448366546,0.7168073075051495,0.3822912468021755,0.17639726399334776,0.10161266295933125,0.25657905227029687,0.26968592395240876,0.6045539410914582,0.31290259913283336,17.0,right
0.3516474318060503,0.15394171201437334,0.36295630507375165,0.4721486527672063,0.6826786268858527,0.5714281623438211,0.7309049572255475,0.4049680423134845,0.19483627970549122,0.10564496024274384,0.30322978904671416,0.2752167598167805,0.6071202814789469,0.33830651322761085,18.0,right
0.3516474318060503,0.14843778000635943,0.3674390028841721,0.44208741566629683,0.6573955707710581,0.5353410975027941,0.649823331834142,0.42224863655390266,0.21266081761806532,0.13602156564941303,0.3205746149833182,0.28206460465657557,0.6067990308736739,0.33709636425489364,19.0,right
0.4011017756055395,0.15767050929804505,0.39880366579979665,0.44739115134866125,0.6460179547735265,0.43158147939286806,0.5734453984601018,0.4503236898167131,0.19668088353702373,0.13360177775321347,0.3002389483537371,0.2986561091962905,0.6199483189614412,0.3491932468160819,20.0,right
0.48214453872955687,0.17098706281818732,0.4368923754316292,0.4951382422913966,0.666245362646869,0.4661680187624526,0.553467014856345,0.4514053978464503,0.18315886065282072,0.12553769509449886,0.3181817146424386,0.3128784018552473,0.6404741561215843,0.3600799804042385,21.0,right
0.5563182070249937,0.17187496830115379,0.44660299111993496,0.5358069507563421,0.6763566591317556,0.5984948927732674,0.649823331834142,0.43844546628565695,0.2169633326464364,0.1470429393332573,0.35227228723012516,0.32156985864962806,0.6510583253071793,0.3879026567225612,22.0,right
0.5906584495621132,0.1724078468393353,0.4398789444043061,0.5172421921433177,0.656129251258406,0.6210543195948546,0.7532329491164944,0.4686839356071033,0.23109983333020878,0.14811794559132885,0.33552654057904263,0.3176188317237667,0.6481719557992349,0.40040343418184676,23.0,right
0.5343402425365795,0.17134208976297227,0.42718460409443537,0.46772718930623114,0.652335107625035,0.5594010497958237,0.7497062989642203,0.5216012569196309,0.19114941290999354,0.1282257226472634,0.3026318486946167,0.30181673012650556,0.6398328763961043,0.37782217720871003,24.0,right
0.49450681677826225,0.1574926577046485,0.4174768327578242,0.41909782614210656,0.6839449463985048,0.5774417186178198,0.7215065240786132,0.5410390977810451,0.17578278619425802,0.13333302618874754,0.3086123911462231,0.30049972115108226,0.6388703460651008,0.38024247515414444,25.0,right
0.445057704581302,0.14879280695128383,0.388350674395717,0.41732991424775534,0.7130221461466775,0.6225548450651246,0.7226790904998026,0.5064820222589077,0.20159787636448456,0.13790333850878156,0.325359276731195,0.29734010327426397,0.6388703460651008,0.3645166813970082,26.0,right
0.4258263317040232,0.15678260381494002,0.37266692076205743,0.44031950377263485,0.7029060347592022,0.603007923576989,0.729732390804358,0.5151192346602969,0.24031934118604426,0.13736532347195052,0.32416225709357605,0.2915454643936144,0.6456056154117462,0.3596776212280304,27.0,right
0.4285729233151585,0.15713763075986353,0.36594571839754053,0.39522596439583424,0.664979043134224,0.5744349404802378,0.7262057406520839,0.6047529345957372,0.26797786475401963,0.15564503702880295,0.3199766746316861,0.2931262763853173,0.6513783544273863,0.3681455925929562,28.0,right
0.3873635859494655,0.14843778000635943,0.35698316712839784,0.3890365890411971,0.652335107625035,0.5714281623438211,0.6780275821636366,0.6263500785570812,0.25629927526708585,0.16129035560690674,0.32356431674194397,0.28232740461966266,0.6359839765571547,0.344758081545514,29.0,right
0.3969792723881085,0.15607254992523067,0.3696775074376859,0.502209889867423,0.666245362646869,0.5548880189921022,0.6039947816319753,0.533479480450687,0.21020173598744307,0.1405913660615461,0.2948563462542282,0.26441889110452266,0.6035914107604547,0.33588775100438006,30.0,right
0.3956033607818057,0.16743611712777273,0.36594571839754053,0.5844396813720394,0.6801508027651266,0.5669151315400995,0.594596348485048,0.4395271743153941,0.15242677765465018,0.11908612182278766,0.23325368388209,0.2507242044783293,0.5811417344233707,0.31370885320745323,31.0,right
0.38873426595323224,0.17027700892847797,0.38386797658530014,0.6056579915509985,0.6852064510075664,0.5984948927732674,0.6145702566439866,0.3941694703332317,0.10141341598133025,0.10779548466657829,0.17404278291694197,0.2501970999721621,0.5724820151572487,0.3116939858823198,32.0,right
0.3681322130721938,0.17453868475033119,0.388350674395717,0.7011488059862749,0.6953225623950487,0.5323285921693426,0.5851934398933025,0.3282942739388375,0.045481891046286194,0.09247306213485551,0.11004835913780653,0.2515141089475854,0.547465998432676,0.3237908684431936,33.0,right
0.3214296924863689,0.17294004913578664,0.34279269798078715,0.7586210960716571,0.6927947382743227,0.43759503566686675,0.5581662314298086,0.2548594602149308,0.0,0.07473085170693317,0.031698811180696396,0.23544870586063915,0.5086594138946037,0.2935478941797509,34.0,right
0.366756301465891,0.1727628737842588,0.3532485337365614,0.7382850581140907,0.6308461951436044,0.43759503566686675,0.5464181899956841,0.25702081979463287,0.000614477799089741,0.07016105129459049,0.005980542451137438,0.22939126701669643,0.49134058610514764,0.29637055130139167,35.0,right
0.4093415504378797,0.18607942730440108,0.4002997946375366,0.8063648195635125,0.6308461951436044,0.4631555134290011,0.5487677982828743,0.3336945881692728,0.03995042041973562,0.07150532102502716,0.03468851293932218,0.23650241334617483,0.5054517937813845,0.31250023995662524,36.0,right
0.41758132526915404,0.19850875158330616,0.4002997946375366,0.8514583589403131,0.7016397152465572,0.4421080664705883,0.5887200900455767,0.3855302014520632,0.0755983258111037,0.07204282415395902,0.037679353631833834,0.23834602530096483,0.5214880621198823,0.3133064940312451,37.0,right
0.4326954265325966,0.19353702187174449,0.37714677422078324,0.7798394062513054,0.7003782106374885,0.4330820048631381,0.5981229986373222,0.38012988722247343,0.10755936440745018,0.07983866715610688,0.030501791543077417,0.24176944619406093,0.5221293418453623,0.3213705704977592,38.0,right
0.3969792723881085,0.17897753592371224,0.35847645161444674,0.7276742192984784,0.6763566591317556,0.4421080664705883,0.5687417064418199,0.38660985300286654,0.14074935860197968,0.08978503458187959,0.03648347292856968,0.24334975665916758,0.5221293418453623,0.31250023995662524,39.0,right
0.38873426595323224,0.17755675190242481,0.36295630507375165,0.7586210960716571,0.6965840670041104,0.44060181380327634,0.5746179648812841,0.4114480080938776,0.14197831420063878,0.09650535941805671,0.04605279642431981,0.24466676563459266,0.5237331519020962,0.31370885320745323,40.0,right
0.4024724556093062,0.18927534604989127,0.38461604100387703,0.7550819048327639,0.6991118911258241,0.4511284008810037,0.582843831607029,0.40604769386428785,0.1364468435736086,0.10080640826593523,0.06878022446089815,0.24203274768395033,0.5243744316275762,0.30645103081524283,41.0,right
0.4532974794136422,0.19584503513412876,0.41299413494740733,0.7303277708651024,0.6434901306528005,0.4571419571550024,0.6192739486622685,0.4362861631857342,0.15980285211321288,0.09973089009996272,0.09031063285985752,0.24571997159353032,0.526619521409792,0.3100799420111908,42.0,right
0.5494491121964202,0.19371419722327143,0.44660299111993496,0.7462423453623863,0.6270520515102334,0.445114844607005,0.6909526654628451,0.5043227191589779,0.16410536714158397,0.08467721913291548,0.09629231424534979,0.25651784030578817,0.5343167103449087,0.3411291703492534,43.0,right
0.541209337365153,0.19211623785045706,0.4383856599176781,0.72590630740482,0.6991118911258241,0.46466176609631304,0.7238561323658104,0.5162009426900411,0.14628082922900987,0.07956991559143134,0.08971269250822544,0.2538843238817421,0.5362411602643835,0.3310486908354022,44.0,right
0.4876377219507546,0.18519152182129606,0.4137421993659878,0.6640125538584591,0.7395667068715355,0.5082686398774783,0.7191569157923396,0.4708432387078716,0.1333732841438966,0.09569859281676152,0.0771525283194947,0.25309441941269206,0.5295058909177381,0.3237908684431936,45.0,right
0.445057704581302,0.175958792529749,0.38386797658530014,0.6295298532972673,0.6940562428833843,0.5428551792470628,0.6745009320113624,0.4319675569850361,0.1376757991722677,0.10053765670125969,0.056220060272167416,0.2520407119269521,0.5295058909177381,0.3237908684431936,46.0,right
0.4134640536553178,0.17773460349582137,0.3577283871958663,0.6525194428214611,0.6700346913766637,0.5473682100507915,0.6004726069235957,0.42440793965467805,0.15672929268302127,0.09677411098252264,0.06818228410926608,0.24387635963874033,0.5339960704821678,0.3157252562544741,47.0,right
0.42307974009395366,0.1793325628684972,0.3577283871958663,0.6728554807797202,0.6725625154983774,0.46165498795872395,0.5628699234471668,0.41576867077350954,0.17947082342353937,0.09865588384189117,0.11483302088568337,0.24334975665916758,0.5362411602643835,0.3193541674507365,48.0,right
0.37912381111819826,0.176136644123007,0.33383014671164446,0.6648981935307319,0.6965840670041104,0.4300752267255561,0.5969459567713216,0.40604769386428785,0.19114941290999354,0.11317205168021616,0.12559822508516305,0.24124284321469425,0.5343167103449087,0.3048385226663193,49.0,right
0.35714061502725514,0.17453868475033119,0.31366653961867996,0.6569409062824363,0.7711717307414219,0.5533817663247902,0.6368982485349335,0.4082090534431444,0.16779340437086532,0.11424705793828949,0.09569323495982829,0.23729231781543092,0.5269401612725328,0.3120963450585279,50.0,right
0.3530233434123531,0.17258502219086225,0.30843862174079106,0.6472157071397859,0.7964596017598069,0.6135345106547163,0.6251502071008161,0.39740842498311935,0.1542713814861827,0.09005378614634552,0.08971269250822544,0.22965456850637977,0.5186016926119361,0.3116939858823198,51.0,right
0.33379197053507426,0.17187496830115379,0.3069453372547457,0.6339513167575532,0.7762321938864574,0.5669151315400995,0.5981229986373222,0.37041096679134,0.18807585348028155,0.09193555900571404,0.12739204614052468,0.22623114761328367,0.5253363512160476,0.2931455350035428,52.0,right
0.3131873018527642,0.17187496830115379,0.29648950149897146,0.6127330065785941,0.8381759221145799,0.568421384206232,0.639247856821207,0.36717201214145234,0.19299284630774238,0.10779548466657829,0.13217670788839797,0.23018167301254877,0.5339960704821678,0.30645103081524283,53.0,right
0.29120933736435006,0.17134208976297227,0.25989407635376693,0.5959327924083482,0.8179485142412304,0.6090214798509876,0.6780275821636366,0.39740842498311935,0.1770129122267008,0.08844076485165253,0.0986840756523435,0.22175351770785134,0.5262988815470511,0.3024197604427741,54.0,right
0.366756301465891,0.16992198198355446,0.2666181230693958,0.5782503060174022,0.6902620992500133,0.5954881146356783,0.6204465150834579,0.3952491218831966,0.19422180190640148,0.06693552061268448,0.11961768263355665,0.22307052668307037,0.5227706215710928,0.3004033573957514,55.0,right
0.4409352013638639,0.1700991573350814,0.3159078885238884,0.5437676054562104,0.7206056185108309,0.568421384206232,0.6157472985099872,0.38012988722247343,0.20282683196314366,0.08037617028503874,0.14234397173624558,0.23808222228448095,0.5317509806999539,0.3120963450585279,56.0,right
0.431319514925228,0.17294004913578664,0.3203877419831933,0.5579142680591431,0.8495535381111239,0.5654146060698224,0.673328365590173,0.3725702698921083,0.14320844023260193,0.071236569460563,0.09987995635607305,0.23702901632554152,0.5359205204013922,0.30685492571334017,57.0,right
0.431319514925228,0.17294004913578664,0.3203877419831933,0.5579142680591431,0.8495535381111239,0.5654146060698224,0.673328365590173,0.3725702698921083,0.14320844023260193,0.071236569460563,0.09987995635607305,0.23702901632554152,0.5359205204013922,0.30685492571334017,58.0,right
0.4381886097538015,0.17684669801271635,0.31366653961867996,0.6295298532972673,0.7787600180081711,0.5759411931475498,0.6603988068461533,0.3412542054996379,0.07621397404445673,0.026075044651102885,0.06758320482327917,0.23518540437075153,0.5243744316275762,0.31250023995662524,59.0,right
0.43544201814265904,0.17862250897878784,0.3300983576714991,0.6640125538584591,0.6675068672559377,0.5729344150099607,0.572268356594094,0.30669712997749343,0.07314041461426513,0.009408352389153052,0.06758320482327917,0.23360509390584916,0.5099419733458159,0.2991932084230342,60.0,right
0.4574199826310732,0.1764916710679305,0.33831284452206134,0.6525194428214611,0.6890005946409445,0.5548880189921022,0.5581662314298086,0.30669712997749343,0.12231034289031584,0.02741931438153955,0.06638732412001502,0.2338683953955325,0.5134702333220247,0.30564477674062296,61.0,right
0.4848911303396193,0.1756037655848255,0.33980612900811025,0.6525194428214611,0.707961683001642,0.5774417186178198,0.6415974651084042,0.3639310010117853,0.1813142568212882,0.041666730655189,0.10586163774156532,0.24835348801737211,0.5442589890622394,0.34032291627494793,62.0,right
0.46565975746234045,0.1756037655848255,0.3532485337365614,0.6419086040065416,0.7294554103866489,0.5894745583616796,0.6639254569984345,0.3952491218831966,0.17393935279650563,0.02634379621556704,0.14055015068088395,0.2567816433222738,0.5609365371259667,0.3330650938827393,63.0,right
0.49450681677826225,0.1724078468393353,0.3547418182231894,0.6145009184722561,0.7699102261323532,0.5594010497958237,0.6333715983826593,0.3790502356725085,0.1364468435736086,0.0,0.09449735425609873,0.25177741043726876,0.529826530780479,0.3310486908354022,64.0,right
0.5041225032168981,0.16992198198355446,0.34354076239995024,0.6516338031491884,0.7623267537681997,0.5308280666990655,0.649823331834142,0.4146869627446108,0.15365690368709295,0.008602097695545652,0.08791887145286381,0.24993379848247876,0.5169978825554509,0.3258057357683253,65.0,right
0.5219779644878741,0.175958792529749,0.3734121408295259,0.7435887937957624,0.7724380502530863,0.568421384206232,0.7215065240786132,0.4945996857699839,0.19668088353702373,0.03198911479367261,0.15610001662824047,0.2609954702112205,0.556446357561537,0.32782213881566236,66.0,right
0.596156864385847,0.18146340077949308,0.3898439588817624,0.7674606555420347,0.8495535381111239,0.6375944629465735,0.7497062989642203,0.5496763101824413,0.23847473735451175,0.037096418335156756,0.17105308115785078,0.2670529090551632,0.5683130861983425,0.3528221580120281,67.0,right
0.5934102727757846,0.17755675190242481,0.3480206158586725,0.7082204535623013,0.790137634004715,0.6496215754945709,0.7332545655127376,0.5809964875336249,0.2685923425531094,0.04704278576092946,0.16925812116859973,0.26494549408388934,0.5458627991187246,0.34516044072172214,68.0,right
0.5865411779472112,0.1724078468393353,0.33681956003543334,0.6472157071397859,0.6788844832524816,0.6556408589656115,0.7884860243057332,0.5971933172653721,0.25322571583737385,0.05000007678605911,0.15430619557287883,0.26678910603867934,0.5343167103449087,0.335079961207871,69.0,right
0.5989034559969824,0.17258502219086225,0.34652733137262715,0.6224582057212444,0.7812878421288971,0.7172941287646424,0.8542929581116567,0.5410390977810451,0.19483627970549122,0.022580762404730947,0.08971269250822544,0.2573082463016405,0.5202048919258875,0.3237908684431936,70.0,right
0.6043966392181872,0.17418298156367662,0.33084357773896755,0.6366048683241772,0.8862190251270334,0.7849609548388372,0.8307879243556187,0.5032410111292407,0.19237836850865264,0.01585992566065464,0.09689025459697831,0.2588880552401509,0.525978241684312,0.3310486908354022,71.0,right
0.5645632134598628,0.17187496830115379,0.3159078885238884,0.6348369564305152,0.8584033299869347,0.7263144631762231,0.7614588158422322,0.4999999999995808,0.237860259555422,0.04973081331390361,0.20693747480089897,0.2762709688291167,0.5679918355928191,0.3479830978433647,72.0,right
0.4862670419469879,0.16992198198355446,0.30918668615995415,0.5667538275295207,0.7888713144930577,0.6466147973581613,0.729732390804358,0.4838031702678265,0.2587583568977081,0.055107380327543254,0.2703350971622882,0.27785077776742106,0.5991012311960251,0.33951666220032806,73.0,right
