AF3,F7,F3,F5,T7,P7,O1,O2,P8,T8,FC6,F4,F8,AF4,ID_all_events,EventId
0.5984801797443211,0.7065517284041185,0.4131863182003368,0.2516518473447933,0.7257504491369566,0.6807647868213937,0.3752572071850846,0.5760815931285688,0.5807595590899073,0.703270383338161,0.45900905766357347,0.2578804464538553,0.7443396676351686,0.5599221594136239,1.0,left
0.5997464956216376,0.6697349862667963,0.40312047765550396,0.23504205336188289,0.6668590754262453,0.6681768713353247,0.3769702902453407,0.5858048915514402,0.5792399780931543,0.6959064423966073,0.4289805295179221,0.249999870632152,0.7449406028046388,0.5586338142742981,2.0,left
0.60987943466818,0.6654036654868598,0.4061403256565139,0.22557600810567102,0.7257504491369566,0.6737162061739692,0.3954761555153663,0.6227521294883189,0.5979744062449388,0.710201660784306,0.41420452946737285,0.24538040117508864,0.7537562263560726,0.5631442492564247,3.0,left
0.6212798956075325,0.6881428418246145,0.4292908963704143,0.22986246140982214,0.7881062800022001,0.7094653875472563,0.416723606284485,0.6679636619148788,0.6359494681465545,0.7320769456349794,0.4704484537347149,0.24646760912050247,0.7637748648849048,0.5689430293778805,4.0,left
0.617479741961084,0.7038442662836353,0.44237562653948004,0.24361495997032367,0.7615472742827052,0.7039270115686183,0.39924624345356285,0.6504611692953404,0.6384804961391399,0.7251460806420766,0.5014300379679852,0.25407599485220445,0.7685831093339637,0.5876289418758027,5.0,left
0.5858134029286433,0.7016791214045099,0.42476160355748327,0.2641544279576973,0.7361427211215847,0.671701641089042,0.3618918963012998,0.5755955670721136,0.5868349904733972,0.7089020204849419,0.46186913359954573,0.24972819801375223,0.7599677975058423,0.561211731548191,6.0,left
0.5946800260983665,0.6946403385049358,0.4348264857247557,0.2759420895158984,0.7569294640483193,0.6827793519063245,0.36566133163649184,0.5493436796710185,0.5508857151669755,0.703270383338161,0.43136316973771294,0.24945652539514107,0.7491486751764276,0.5708755470866151,7.0,left
0.5997464956216376,0.723877011522589,0.46300949752248854,0.28290761864952874,0.774826777142227,0.6817725487940596,0.37799879268444414,0.5678172986392678,0.5539239129594389,0.6961229803709328,0.4084843775954301,0.25543487541622945,0.7365256026998308,0.5779638993421372,8.0,left
0.5680813626041967,0.7698966504177704,0.45747390816814715,0.29880317380526034,0.7661672834741218,0.6500496210106075,0.3543523730279112,0.5600390302068039,0.5498733039700969,0.6889755774037045,0.3708295854025998,0.2456520737934884,0.722900971607138,0.5386595566375512,9.0,left
0.5826476132356007,0.7758538918992599,0.45495720843764786,0.3095194771227625,0.7678978628336175,0.655588955849252,0.337560243420878,0.5551778438772779,0.5468351061776335,0.6881090130528218,0.33794098132097616,0.24266315751884981,0.7180923456121358,0.5502571168799548,10.0,left
0.6060804870372216,0.7623165812980979,0.46401675244145935,0.30934057730231057,0.7863735016856772,0.6711982395329077,0.3464702331425791,0.6037924844632343,0.5777213612974403,0.6878924750784972,0.308865509263315,0.249999870632152,0.7162891585571547,0.5625000766870158,11.0,left
0.6041798072064992,0.7726041125378345,0.4599906078990408,0.3075549802342934,0.7927240902365895,0.6651555031377381,0.35126817091687457,0.6378217145333505,0.608607616417645,0.690491755677562,0.29361298116858414,0.25326097699679195,0.7154875301182706,0.5631442492564247,12.0,left
0.6067136449756347,0.7780190367783817,0.4529446153552179,0.3070189610001819,0.7938807417524387,0.6701914364202519,0.35126817091687457,0.6208070994982915,0.6015188096358397,0.7058696639372259,0.317445737070857,0.2502715432505518,0.7176917221656653,0.5773197267727248,13.0,left
0.617479741961084,0.7596111812205635,0.4604937561695479,0.30666184158666177,0.7609689485245568,0.6787511805964765,0.356751341915059,0.5916381299938784,0.5746831635053713,0.7019711554920391,0.34747426521650837,0.2543476674706042,0.7261067222706297,0.5792522444809585,14.0,left
0.6434452475163468,0.7677315055386451,0.4866632165068978,0.30362530622996964,0.7528877806146035,0.6767366155115457,0.37011665279884376,0.5785126491754315,0.5579745219487773,0.6796619697860615,0.341277585300757,0.2638587964747341,0.7315166649815152,0.5947160671360798,15.0,left
0.6396450938703921,0.7850567886571156,0.47861092742205713,0.29987521227348335,0.8331409245737547,0.6732118457578284,0.3793692591324884,0.5702483546861323,0.5478475173749064,0.6855101449071679,0.32840860509818803,0.2581521190722569,0.7255057871010022,0.5863405967369815,16.0,left
0.6035466492680897,0.7666489330988746,0.4448923262699829,0.29933919303937184,0.8389153863239933,0.6732118457578284,0.3670324506878071,0.5522607617739599,0.5534177073609978,0.7015376670899771,0.33555834110155836,0.2527176317599924,0.7225003481608248,0.5856951971718232,17.0,left
0.5870809248204623,0.7455336154205696,0.4428787748099907,0.29933919303937184,0.7546183599736445,0.6671700682230597,0.3423575285921707,0.5260088743728648,0.5503795095685344,0.6954733664477875,0.34032452921313805,0.24646760912050247,0.7253054753778461,0.5760301546381541,18.0,left
0.595313184036776,0.7623165812980979,0.45193736043624355,0.299160293218919,0.7806012388924657,0.6505539814267483,0.334132772094625,0.5138554456673319,0.5139240286636735,0.6861597588303132,0.3312677733614162,0.2326086832779204,0.719094285774176,0.5244840791212511,19.0,left
0.6111469565604963,0.777476719537443,0.4458986228113915,0.30058945110066215,0.8504621108669923,0.6283985597921795,0.3368743575939863,0.5318430385795043,0.5073414274803074,0.6863762968046387,0.3312677733614162,0.2391303785358101,0.7114805325619962,0.5386595566375512,20.0,left
0.5858134029286433,0.755821146660729,0.43029719291182644,0.29808893497808153,0.786951827443378,0.6163140458622411,0.3331049222587925,0.5512887096610459,0.5382276826001178,0.6946068020970744,0.34175411334493866,0.24266315751884981,0.7154875301182706,0.5586338142742981,21.0,left
0.5598478973728831,0.7336232565426499,0.4328138926423257,0.28898000913552835,0.7159343039530022,0.6364549024118791,0.34544238330647836,0.5687893507525601,0.5534177073609978,0.7015376670899771,0.34175411334493866,0.2312498027138954,0.7186936623278628,0.5373712114982254,22.0,left
0.5763148278355068,0.7276660150611605,0.4323097859942564,0.28219337982234993,0.7794467863340948,0.676233213955415,0.38142561140742615,0.6096257229060509,0.5756965389032924,0.7013211291156516,0.3446141892805379,0.23369589122333423,0.71448597150233,0.5399479017763724,23.0,left
0.5807469334048783,0.7097994457225951,0.41872190755468,0.278442605638479,0.8446876491167536,0.6918424976386799,0.39924624345356285,0.6456009087300174,0.6141768422026974,0.7071693042365892,0.3584371332438394,0.24211981228205026,0.71448597150233,0.5399479017763724,24.0,left
0.5997464956216376,0.716838228622592,0.4403630334570501,0.28219337982234993,0.8192830959560808,0.684289556575111,0.39342045584316665,0.668935714027791,0.6369618793434295,0.7260126449927897,0.3736896613385703,0.24918485277673952,0.7287115377644939,0.5760301546381541,25.0,left
0.6149459041919485,0.7433684705414443,0.4609969044400586,0.2925518834988079,0.7736723245838562,0.6827793519063245,0.38005514495938186,0.6635885016418097,0.6227842657798188,0.723413364393724,0.3708295854025998,0.25543487541622945,0.7441393559118552,0.5966498118400594,26.0,left
0.6086131187913608,0.737953546300897,0.455460356708155,0.2938021415600991,0.7563511382901673,0.6797579837091323,0.36737506729975244,0.6096257229060509,0.5827843814840552,0.6993718748929743,0.3546240012198787,0.2548915301792185,0.7369262261461449,0.5702313745167018,27.0,left
0.6288789968849429,0.7384958635422585,0.46150005271056926,0.29023026719681955,0.7759812297010491,0.67572981239889,0.3769702902453407,0.5921241560503354,0.5600003085443657,0.6993718748929743,0.37273660525058006,0.2622282432925207,0.7253054753778461,0.5695872019472894,28.0,left
0.657378340209835,0.7644837882197493,0.48364432688345005,0.2957673186760923,0.814086959963543,0.6837861550189803,0.394105689067322,0.626641263704931,0.5681015265230496,0.7119343770326578,0.4170646054029721,0.28315220962979204,0.7387294132011251,0.6037369371003365,29.0,left
0.6630779676715193,0.7780190367783817,0.49169661596829073,0.30058945110066215,0.825057557706323,0.6908356945264149,0.3889651346810812,0.5969862681436826,0.5584807275476127,0.7069527662622646,0.42659698162613324,0.29266282116232034,0.7505504756925809,0.6314437195625153,30.0,left
0.632045992592488,0.7596111812205635,0.4710617866077236,0.2946952802078693,0.8169741908388879,0.6676734697791904,0.36154927968935624,0.5328150906924165,0.5346832792092133,0.6993718748929743,0.4156341135988004,0.270108819114224,0.7339207872059665,0.5728092917905947,31.0,left
0.6200123737152197,0.7390361187406675,0.46300949752248854,0.2957673186760923,0.8348737028902775,0.6480360147856867,0.34372864764321776,0.5357321727957363,0.545822694980755,0.6980722345934414,0.423736905690161,0.2635871238563343,0.7233015950536084,0.5367270389288166,32.0,left
0.6447115633936633,0.7476987602996914,0.4811276271525564,0.30255394798913127,0.8129325074051721,0.6611273318278901,0.3519534041407635,0.5707343807425875,0.5640509175337076,0.696556056319583,0.4466156978324438,0.29239114854392056,0.7373268495926144,0.5979381569793851,33.0,left
0.6314128346540784,0.7541962569800127,0.4896830645083021,0.294517060614802,0.763280052599228,0.651560784539404,0.35606610869117006,0.5916381299938784,0.5802533534914662,0.7143167072039871,0.4704484537347149,0.30489119382268726,0.7495492986227408,0.6249995398764057,34.0,left
0.6181128998994936,0.7395784359816098,0.4881736196963793,0.28987314778316,0.8036946879789149,0.6273917566795237,0.35400975641596766,0.6378217145333505,0.6197470321887923,0.7420401671755981,0.4928507178328161,0.3000000517472241,0.7539569196253302,0.6327320647018411,35.0,left
0.6371124621162529,0.734705828982424,0.48364432688345005,0.2979100351576287,0.8475748799920986,0.6545821527369906,0.36737506729975244,0.694701575372429,0.6460755085193863,0.7355427905845886,0.49046716994102546,0.2972828080909853,0.7597671042364293,0.6307983199978615,36.0,left
0.65231187068607,0.7460759326619311,0.4866632165068978,0.2966597770963384,0.8331409245737547,0.695368226252798,0.3906782177410708,0.6820611948466162,0.6394938715374554,0.7275288232666473,0.48474792574145553,0.2994567065102114,0.7693843562267473,0.6385296178275475,37.0,left
0.6402782518088017,0.7303734771812245,0.49018621277880925,0.28237159941541723,0.8204397474719336,0.674723009286625,0.38005514495938186,0.6067086408027311,0.6081014108188132,0.7333765859343426,0.4928507178328161,0.3046195212042875,0.7699856729424743,0.6565713577560608,38.0,left
0.613679588314632,0.7184620872820382,0.47659833433962717,0.2779065864043675,0.8060035930961114,0.6591137256029693,0.35743657513921434,0.5721924589123368,0.5716449657129079,0.7166990373753155,0.44852271768042407,0.29103278545170674,0.7505504756925809,0.61082406236061,39.0,left
0.6345786243466236,0.7271257598627514,0.47961818234102793,0.2838007572972998,0.802540235420544,0.6933536611674764,0.3783414092963895,0.6212931255547485,0.5843039624808082,0.7108512747074514,0.39418490558869124,0.27418494333427645,0.7423361688570305,0.5972939844094718,40.0,left
0.6440784054552537,0.7200869769627509,0.48917991623779145,0.28612237359928905,0.8290992411400389,0.6973818324777188,0.39581877212730987,0.6383086663536286,0.6101262332129611,0.7279618992152983,0.43994339754525313,0.2747282885712874,0.7577639870045481,0.6166240694773073,41.0,left
0.6117801144989059,0.7119656216234027,0.47961818234102793,0.28290761864952874,0.8400698388823642,0.67572981239889,0.3704592694107891,0.5770536452418611,0.5777213612974403,0.7260126449927897,0.5295524539380274,0.2798911032651521,0.7655780519398858,0.5947160671360798,42.0,left
0.6212798956075325,0.7081755870635682,0.475592037798215,0.27237021515261883,0.8308320194565617,0.6772400170676764,0.35092555430466277,0.5435104412282019,0.56962014331876,0.7210310342223956,0.5877024903809787,0.29103278545170674,0.7675811691717662,0.6069590269436418,43.0,left
0.632045992592488,0.7087168732832438,0.4720690415263036,0.2605822134805855,0.8377587348081441,0.6898288914137591,0.3783414092963895,0.5760815931285688,0.640506282734334,0.7463721640226781,0.6391802265371123,0.30190227754804866,0.7836106855811114,0.63788667225338,44.0,left
0.6155790621303581,0.6881428418246145,0.4584802047095593,0.24986591016308335,0.8458421016755757,0.6913390960825456,0.40678576672695144,0.619349021328544,0.6921517884000767,0.7727959836949259,0.7040043786119963,0.3097823358981522,0.798637498736058,0.6533492679132564,45.0,left
0.6168465840226709,0.6507848134676131,0.447911215893825,0.23539917277540212,0.8296775668977396,0.6998997991187768,0.4084988497872075,0.6558102332093441,0.7093666355551118,0.7695475016261266,0.741182642761018,0.310869543843566,0.8066514938484524,0.6456191970788154,46.0,left
0.6257132071923941,0.6410395994688187,0.44136932999807144,0.22879076305543045,0.8198614217137816,0.7019134053436975,0.4088414663991511,0.707340104370596,0.7427839186675076,0.7600173560341581,0.7459479232002266,0.30733676486031314,0.8142656286067327,0.6391750173927058,47.0,left
0.6149459041919485,0.6442883478085548,0.43985892680858996,0.23254153723930227,0.8175525165965887,0.6918424976386799,0.4150105232244954,0.7476904504676298,0.7574687020309927,0.7769114425676804,0.7330789429972864,0.31413065020841735,0.8100579377812007,0.6746130976845741,48.0,left
0.6187460578379032,0.6589061688069613,0.44740806762291996,0.23504205336188289,0.8296775668977396,0.7180260905834874,0.4252916319972435,0.7598438791731628,0.7564562908337198,0.8003033181454544,0.7449948671122364,0.32581516016017176,0.8160688156617137,0.6926548376130839,49.0,left
0.6839782097190046,0.6984303730647738,0.48364432688345005,0.2416501229681618,0.8568126994179046,0.7593146067954191,0.4389989068899691,0.7637339391532176,0.7640503390129236,0.7929393772037319,0.7850341148696014,0.3472824717344558,0.8403122573605089,0.7184266483760418,50.0,left
0.7257762817829878,0.737953546300897,0.5173629280355243,0.2496873504563233,0.881062800020203,0.7567966401543575,0.44619581355141413,0.7549836186074614,0.7569615322311183,0.7751783138662542,0.7988561511601606,0.36222860552266134,0.8439186314703138,0.7525763835290853,51.0,left
0.7245099659061651,0.7509485396611169,0.5223963274969172,0.2527235456991841,0.9035801223059821,0.7321251695983566,0.4324885386586885,0.7384550296292378,0.7392395152766067,0.7743121619687843,0.7936134350047706,0.3562497380299714,0.8349026961957229,0.7396904781478604,52.0,left
0.7682087178008778,0.7579862915398508,0.5505783809166971,0.2643326475507646,0.896072882239217,0.7321251695983566,0.41706622289669504,0.736023973582375,0.7427839186675076,0.7844923339369707,0.8060067948362732,0.3747286508014298,0.8409135740762359,0.759020563215195,53.0,left
0.8017745306490411,0.7818090713382198,0.5832916439053122,0.2780854862249589,0.8816389268208731,0.740181512218447,0.4115830518982442,0.7413711859683563,0.7564562908337198,0.8018194964193119,0.824595926910785,0.4105977159837053,0.8441193247395704,0.8021911683324952,54.0,left
0.7840412843095983,0.7872219335362374,0.5707100620071479,0.27094105727073625,0.905889027423175,0.752769427704516,0.42117892744683694,0.7418562862609903,0.7524047176433388,0.7829761556631123,0.7988561511601606,0.4032610028704031,0.8222796237191261,0.8208758538351759,55.0,left
0.7384418525841632,0.7439087257398569,0.5269256203098465,0.25361668434695517,0.87875389490301,0.7829811919591751,0.4441401138792145,0.7418562862609903,0.7311382972979228,0.7439898338513498,0.7378460387812371,0.36086972495863634,0.793828491194799,0.7738402133009039,56.0,left
0.7093093513208579,0.7179208010623626,0.5032719013254372,0.25236642628566397,0.8314081462572318,0.8036254500649438,0.45853262199609546,0.744774294128133,0.726581482709749,0.7654320427532033,0.7078166029632147,0.34483690069661677,0.7832092990424409,0.7003873624385193,57.0,left
0.7365411727534408,0.7617763260996853,0.5269256203098465,0.26290416989640697,0.8775972433871573,0.8021142865361472,0.46881373076857713,0.7442873423078531,0.7392395152766067,0.8011694700429253,0.729266718646068,0.35842415392101046,0.7884189300301703,0.7287358634796206,58.0,left
0.728308913537127,0.7877642507771796,0.5299445099336886,0.2643326475507646,0.9255191188340568,0.7804632253177193,0.4694989639927325,0.7350519214694629,0.747340733255685,0.7888239183309773,0.7735938111260889,0.35788080868399774,0.7948304313569965,0.7474230029727913,59.0,left
0.6877771573499629,0.7531136845402422,0.5057876426783778,0.2571885587102347,0.8908767462471303,0.752769427704516,0.4509937513257096,0.7326208654226001,0.7655699200096766,0.7738790860199645,0.7864627913290292,0.3508152507177069,0.7952310548033097,0.7074744876987964,60.0,left
0.6770098543495138,0.7336232565426499,0.4876704714258686,0.2541523634673739,0.8729794331527714,0.749747100646923,0.42563359600618433,0.7394270817421518,0.79291080753754,0.7734460100713134,0.7535760025925207,0.3394018959127507,0.7886196232994269,0.699741962873361,61.0,left
0.6618116517946966,0.7319983668619372,0.47357848633822286,0.25575974094218434,0.8903006194464602,0.7613282130203363,0.4174088395086404,0.7413711859683563,0.7999996143193453,0.7803768750642162,0.7297423390175055,0.3236412617407325,0.7880183065836999,0.6932977831872513,62.0,left
0.6744772225953781,0.734705828982424,0.4826370719644757,0.2552240618217647,0.9018473439894592,0.7628393765491364,0.42631882923007325,0.7496345546938343,0.8025316065133712,0.7938055291012018,0.7545290586801396,0.33831520543893845,0.8028451895615909,0.709408232402776,63.0,left
0.7023434079818607,0.7287485875005082,0.4977353535935336,0.2539738037604744,0.8891461668876381,0.7552873943455776,0.4215221966620515,0.7384550296292378,0.7827847671647081,0.7816761029103381,0.7635839991867481,0.3576086185939964,0.817070755823754,0.7248708280621479,64.0,left
0.6953774646428634,0.7125069078430784,0.49974890505352576,0.2500444698698434,0.8314081462572318,0.7492446579507988,0.4088414663991511,0.67331087430086,0.724051418918199,0.7621835606844041,0.7349868705180107,0.3524458038999203,0.817671309447281,0.7274475183402984,65.0,left
0.6972781444735858,0.7125069078430784,0.5078011941383664,0.2416501229681618,0.8366042822493185,0.752769427704516,0.4081562331749957,0.6198350473853793,0.6891135906076133,0.774529112396352,0.7526211311597883,0.3532608217553328,0.812261748282495,0.74613465783397,66.0,left
0.728308913537127,0.7200869769627509,0.523402624037935,0.24325750044297223,0.9157051726071295,0.7578034432666225,0.4150105232244954,0.6494891171824264,0.7174678535337922,0.7875246904846867,0.797425659355989,0.36141307019564906,0.8132636884446924,0.74613465783397,67.0,left
0.7441414800458475,0.7222521218418763,0.5264215136617771,0.24647259550656386,0.9012712171887856,0.7467266913093464,0.41843734194774385,0.6961587277783554,0.7675947424038281,0.78774081600577,0.8079129070118825,0.366033057124314,0.818873942878735,0.7667530880406304,68.0,left
0.6947431006889602,0.6989716592844459,0.49421235732162216,0.23146983888477113,0.8314081462572318,0.7316208091822158,0.4088414663991511,0.7015077916919807,0.7954427997315658,0.7873077400571189,0.7869402270452106,0.3532608217553328,0.8126623717289654,0.748711348112117,69.0,left
0.6428120895779372,0.6675688103659851,0.46401675244145935,0.2223609130420794,0.81177805484635,0.7301096456534157,0.3961620413425262,0.7029649440979071,0.8086080020979036,0.7797268486878286,0.7645370552747384,0.32961961176182264,0.8006406159680957,0.6759014428238963,70.0,left
0.6478785591012084,0.6583648825872856,0.4710617866077236,0.23200551800519076,0.814086959963543,0.7286003998446393,0.3913641035682289,0.7122022164639432,0.8035440177102497,0.7721467822250228,0.7483314710920173,0.3263585053969713,0.7888195534764835,0.667525972424297,71.0,left
0.6497780329169345,0.6675688103659851,0.477604630880645,0.2348631535412915,0.8192830959560808,0.7255780727870427,0.39204933679211784,0.7190084327834949,0.7822775973648337,0.7699805775747777,0.7321258869096674,0.33016295699862397,0.7830093688653843,0.679768932231859,72.0,left
0.6719445908412425,0.6843528072647764,0.4876704714258686,0.23057670023700094,0.8308320194565617,0.7351455789359331,0.4180947253358003,0.7384550296292378,0.7797475335732873,0.7829761556631123,0.7507150189841791,0.33831520543893845,0.8036464364543745,0.7132732678197442,73.0,left
0.7074110835201317,0.7043855525037301,0.51434308003412,0.23914960684558118,0.8366042822493185,0.7658597858867129,0.45339272021285915,0.7690811515391989,0.810125654692575,0.808966486933298,0.7940890553762081,0.3567930832669841,0.8274892547068555,0.7480659485469552,74.0,left
0.7004427281511383,0.7195456907430753,0.5198796277660236,0.24397207938398324,0.8585454777344275,0.8006031230073507,0.45682019153911035,0.7710252557654034,0.814684397682834,0.8063680312408863,0.7859871709575916,0.3508152507177069,0.8166701323774408,0.7235824829233266,75.0,left
0.6928448328887242,0.7060104421844464,0.5052844944078672,0.23504205336188289,0.856236572617231,0.774420488922944,0.44345488065532557,0.7253276972827685,0.7615183468192921,0.7857915617832614,0.7392765305854088,0.3334240633634753,0.8144655587837892,0.6984536177345397,76.0,left
0.7042440878125831,0.702761693844284,0.5128336352222007,0.2380782486047437,0.8394915131246634,0.7381659882731153,0.43694320721776947,0.6849773511857347,0.7321526368972773,0.7805938254917839,0.7387990948692291,0.34782581697125536,0.7912240572471916,0.71456161295907,77.0,left
0.7327422251219886,0.7217108356222006,0.5435323883728742,0.24522233744527355,0.8816389268208731,0.7719025222814881,0.4307748029954279,0.7029649440979071,0.7554438796368448,0.7743121619687843,0.765014490990918,0.379076447639882,0.6860348389780029,0.780927338561181,78.0,left
0.7333765890758883,0.7217108356222006,0.5405134987494229,0.23914960684558118,0.90935238509919,0.8066458594025203,0.42940303134137636,0.7428301899019267,0.769619564797976,0.7749621883451718,0.7545290586801396,0.3733697702374048,0.5942695585319386,0.780927338561181,79.0,left
0.699810776227725,0.7043855525037301,0.5078011941383664,0.23468459383453144,0.8446876491167536,0.7875127648251539,0.435914704778666,0.7457463462414253,0.7549367098369704,0.7953217073750602,0.7340319990852766,0.3432063475144034,0.5848526182649341,0.699741962873361,80.0,left
0.6934767848121375,0.7022204076246084,0.5088074906797786,0.23914960684558118,0.8325625988156027,0.7633437369656679,0.43762844044192484,0.7374811259883014,0.7594935244251442,0.8016025459915754,0.7340319990852766,0.3394018959127507,0.5816468676015987,0.702318653151508,81.0,left
0.6839782097190046,0.7092581595029195,0.5072980458678593,0.2368279905434525,0.8972295337550698,0.7633437369656679,0.43694320721776947,0.7549836186074614,0.7843043481614611,0.7940224795289392,0.7387990948692291,0.3464674538790433,0.5656181142844545,0.7255162276273097,82.0,left
0.669410753072107,0.7033029800639596,0.4927029125097029,0.23129127917801195,0.8827933793796952,0.7809656680138435,0.44482534710336985,0.8050563373631654,0.7969623807283188,0.7912062485023057,0.7416582631324555,0.3532608217553328,0.5834500546564225,0.7203603930800213,83.0,left
0.6700451170255128,0.7000542317237972,0.504278197866455,0.2361134116025818,0.8469987531914285,0.797582713670165,0.452707486988702,0.836654511386417,0.8065812513016706,0.7844923339369707,0.7483314710920173,0.3540758396107453,0.6088957482405721,0.7248708280621479,84.0,left
0.6611784938557932,0.7081755870635682,0.5103169354917014,0.24361495997032367,0.893763977122024,0.7714000795853675,0.4403706785440207,0.7802625281318196,0.7837971783615867,0.766731270599494,0.7321258869096674,0.3293479391432115,0.6104986235722398,0.6868560574921361,85.0,left
0.6567451822709316,0.714130766502528,0.5072980458678593,0.24468631821116205,0.9087762582985199,0.7301096456534157,0.4160383730605961,0.7039369962108193,0.7367094514850567,0.7639158644793449,0.6959006788482647,0.3173912391014557,0.6050890624076102,0.6604388471640199,86.0,left
0.6485117170401118,0.7070930146237941,0.5022646464064664,0.24468631821116205,0.8833717051373959,0.7608257703242156,0.40541464767590263,0.6932425714388568,0.7326578782946758,0.7769114425676804,0.6992372828280455,0.3334240633634753,0.6072928729089044,0.6707480622676023,87.0,left
0.6440784054552537,0.6984303730647738,0.50478134613736,0.24450775850426254,0.9001145656729364,0.7860016012963573,0.40986996883825455,0.6922705193259446,0.7443034996642606,0.7834092316119321,0.7287892829298865,0.34483690069661677,0.6217187508942246,0.6965198730305566,88.0,left
0.6516787127476604,0.7206282631824266,0.523402624037935,0.24522233744527355,0.8706705280355749,0.7487402975342672,0.4088414663991511,0.6747698782344305,0.7422786772701127,0.7866577136807313,0.7540516229639582,0.345924108642242,0.6293325041064053,0.7158499580978912,89.0,left
0.6763779024261005,0.7325386220603463,0.53548009928803,0.24772285356785417,0.8290992411400389,0.7532718704006403,0.40507203106395906,0.6854643030063929,0.7686071536010974,0.784708459458054,0.776930415105868,0.3510869233361067,0.6315366961538,0.71456161295907,90.0,left
0.7213429701981262,0.7179208010623626,0.5415197952904443,0.2512947279311337,0.9139723942906066,0.7965759105575092,0.4177521087235885,0.7141463206901477,0.790378815343912,0.7795107231667453,0.7707346428628608,0.3595108443948227,0.6381485092037833,0.753864728668411,91.0,left
0.7321102731985718,0.7439087257398569,0.5546054838370686,0.2620110312486359,1.0,0.801611843840023,0.4403706785440207,0.7394270817421518,0.7848095895588596,0.7883908423821575,0.7712102632342983,0.36222860552266134,0.6457622624159631,0.7789935938571979,92.0,left
0.7162752946598587,0.777476719537443,0.5621536662738436,0.2698696990300373,0.9693993108467893,0.797582713670165,0.45476318666090343,0.7569277228336659,0.7969623807283188,0.7881738919545898,0.7888463392208198,0.3687497833087381,0.6451609457002361,0.7789935938571979,93.0,left
0.714377026859129,0.7536539397386512,0.5425260918318529,0.26165391183511666,0.9232102137168638,0.8036254500649438,0.4530494509976428,0.7510935586274066,0.8060760099042756,0.7764783666190294,0.7659675470789082,0.3706520091095644,0.645561950692807,0.7699751778834312,94.0,left
0.7055104036894058,0.7276660150611605,0.5269256203098465,0.25379524405371434,0.9087762582985199,0.7915399772749954,0.4509937513257096,0.7399121820347858,0.7964552109284444,0.7905570470324026,0.7373686030650575,0.3576086185939964,0.6525743871891034,0.7332462984617507,95.0,left
0.7131107109823063,0.7363286566201808,0.5435323883728742,0.2593319554192952,0.8972295337550698,0.7965759105575092,0.4595611244351989,0.7501215065141142,0.7949375583341709,0.8059349552920665,0.7507150189841791,0.3540758396107453,0.6413542598672741,0.7519334379549178,96.0,left
0.7137426629057195,0.7455336154205696,0.5410176053974922,0.2607607731873456,0.9209013085996709,0.8106749895723784,0.46367382898533904,0.7506084583347725,0.7944303885342929,0.7827592052355445,0.7435661906531799,0.35733642850378367,0.6519734520196332,0.7661076884754685,97.0,left
0.7188103384439906,0.7601514364189725,0.5379967990185293,0.25986763453971484,0.9278280239512497,0.8006031230073507,0.46298859576145013,0.7374811259883014,0.7913931549432665,0.7699805775747777,0.7354624908894483,0.36576086703410127,0.7469444831288765,0.7525763835290853,98.0,left
0.7409744843383024,0.7720638573394218,0.5591347766500014,0.2645115473712165,0.87875389490301,0.7890220106339338,0.4513370205406577,0.7578997749469583,0.7984800333225959,0.7909901229812224,0.7816975108898205,0.38097867344070835,0.8435180080238434,0.7725518681615782,99.0,left
0.7422432122456115,0.7601514364189725,0.5732267617376472,0.26111789260100515,0.893763977122024,0.7925467803876511,0.4372851712267103,0.802625281316681,0.8222784458620342,0.8078842095147447,0.8036232469441114,0.3793476027866802,0.8521333198519647,0.7847948279691401,100.0,left
0.7726420293857359,0.7731464297791959,0.5948669292620643,0.2648686667848761,0.9757498993976981,0.8081570229313169,0.4513370205406577,0.8142936097295799,0.8465820997984768,0.7981371134952084,0.79647260326837,0.3831520543883329,0.8441193247395704,0.8099236931579306,101.0,left
0.7789736087713273,0.7866816783378283,0.5858083436358115,0.2818362604088298,0.9676665325302665,0.7990938771989615,0.45544841988479057,0.7661649952000804,0.8258228492529387,0.7797268486878286,0.8017153194237601,0.3923909933024614,0.8679621429920523,0.8060562037499679,102.0,left
0.7276769616137138,0.7487813327394655,0.5395072022080107,0.2814784607677865,0.8897222936883082,0.7663641463028537,0.428717798117221,0.7335929175358906,0.792405566140145,0.7881738919545898,0.7969500389845514,0.3793476027866802,0.8705665769396598,0.778350648283034,103.0,left
0.7245099659061651,0.7374112290599548,0.5500761910237486,0.2698696990300373,0.8804844742625022,0.7729093253941475,0.4300895697715408,0.7700532036524912,0.8096204132951765,0.8094003877886022,0.7859871709575916,0.37527199603822936,0.8567416341239662,0.7970353337857112,104.0,left
0.7587077306777452,0.773686684977605,0.5853042369877421,0.2766563283430772,0.9445730834438173,0.8136953989099549,0.4592191604262581,0.8021383294960227,0.8217712760621598,0.8063680312408863,0.7959969828969324,0.38777204131699783,0.864555699059304,0.7963923882115438,105.0,left
0.7593420946311547,0.7758538918992599,0.5742330582790593,0.283086518470121,0.9722865417221342,0.8162133655510164,0.4571621555480512,0.7807494799520978,0.7994943729219504,0.7920724003997766,0.8069598509238922,0.38858654170080875,0.8711678936553868,0.7905936080900915,106.0,left
0.728308913537127,0.7498639051788132,0.5445406016694037,0.27362047321390914,0.9243646662752347,0.7880152075212781,0.43968414011385804,0.748662502580542,0.7964552109284444,0.7968378856489187,0.797425659355989,0.3804342932604925,0.8583448910017344,0.780927338561181,107.0,left
0.7200766543213071,0.7634012157804015,0.5601410731914136,0.27219131533202656,0.8983839863138918,0.7925467803876511,0.44825281842962106,0.7457463462414253,0.8020244367134968,0.8050679784881112,0.7959969828969324,0.3804342932604925,0.846123205063809,0.7648193433366473,108.0,left
0.7397081684609859,0.7850567886571156,0.5928543361796343,0.2809431217610596,0.9151268468494287,0.8091638260435818,0.4605896268743024,0.7642190394458517,0.7984800333225959,0.7862246377319115,0.8102964549036731,0.39266318339246276,0.8465238285102785,0.7886598633861119,109.0,left
0.7359092208300275,0.7780190367783817,0.5762456513614893,0.28344363788364024,0.9376441691352078,0.7970783532536334,0.44551058032725877,0.7822066323580241,0.8015191953160983,0.7756122147215585,0.8141086792548897,0.3932065286294737,0.8489275691886293,0.7725518681615782,110.0,left
0.7321102731985718,0.7742290022185472,0.5616514763808951,0.2752278506887187,0.9584287131044604,0.7814700284303786,0.4352294715547771,0.794360061063557,0.811645235689328,0.8061510808131498,0.8050519234035391,0.3872286960801983,0.8437187012932572,0.7603089083545207,111.0,left
0.7473084757538864,0.7769364643390304,0.5797686476334007,0.27201309573895927,0.9520781245535517,0.7955691074452442,0.4643590622094962,0.8089445458155744,0.8258228492529387,0.8271606262195954,0.8088659630995014,0.39130430282864914,0.841514890791963,0.8015457687678413,112.0,left
0.7479428397072958,0.7769364643390304,0.5752393548200772,0.2777283668113002,0.9255191188340568,0.8056390562898645,0.48423604653056884,0.8147787100222139,0.8243032682561857,0.799220215820247,0.7969500389845514,0.3923909933024614,0.8417148209690195,0.7976807333503686,113.0,left
0.7276769616137138,0.7639414709788106,0.5425260918318529,0.27362047321390914,0.9278280239512497,0.7809656680138435,0.4660727978724868,0.793874960770923,0.7954427997315658,0.78774081600577,0.753098566875968,0.38287986429833154,0.8349026961957229,0.7622426530585003,114.0,left
0.7067767195667223,0.756361401859138,0.5309508064747064,0.2632612893099262,0.9122396159740838,0.7608257703242156,0.4595611244351989,0.8006811770904765,0.8010120255166182,0.8100495892583366,0.7426131345651896,0.3758153412752421,0.8337008258566261,0.7454892582688082,115.0,left
0.7219773341520295,0.7731464297791959,0.5500761910237486,0.2712981766843958,0.87875389490301,0.7532718704006403,0.4677865335357474,0.8084594455229404,0.8243032682561857,0.7944555554775894,0.765014490990918,0.3815220186777193,0.8389096937519982,0.7847948279691401,116.0,left
0.7074110835201317,0.7493236499804041,0.5344738027466178,0.2752278506887187,0.9105090366150428,0.7421951184433642,0.45476318666090343,0.7496345546938343,0.7782279525765343,0.7684643993009193,0.7535760025925207,0.3717386995833767,0.8300936886544639,0.7680414331794516,117.0,left
0.65231187068607,0.7049268387234058,0.5032719013254372,0.25879627629887647,0.9445730834438173,0.7507558214795989,0.44619581355141413,0.7175494288499245,0.744810669464135,0.78774081600577,0.7187794709905457,0.3475541443528556,0.812261748282495,0.679768932231859,118.0,left
0.685876477519237,0.7319983668619372,0.5314549131231701,0.25629576017629585,0.919168530283148,0.7930511408037919,0.4595611244351989,0.7374811259883014,0.7701267345978504,0.8096165133096855,0.7278362268418963,0.35652192812018413,0.8126623717289654,0.7081174332729603,119.0,left
0.7340085409993016,0.7628588985390365,0.5606451798394829,0.2671902830868653,0.906467353181327,0.8061434167063961,0.4557916891000069,0.7122022164639432,0.7635450976155251,0.7866577136807313,0.7535760025925207,0.3728264250006035,0.823081633704267,0.751288038390264,120.0,left
0.699810776227725,0.7200869769627509,0.53548009928803,0.26093933289410565,0.905889027423175,0.7653573431905887,0.4355727407697252,0.6703947179613614,0.7205070155272981,0.7654320427532033,0.7268831707542791,0.36141307019564906,0.8186732496093212,0.7164953576630531,121.0,left
0.6580114981482481,0.6892264452856516,0.5113241904102779,0.25183074716524523,0.896072882239217,0.7517626245918603,0.4273473316691767,0.676713982460635,0.7260762413123505,0.7823261292867247,0.6982842267404266,0.3502719054806942,0.8118611248361818,0.699741962873361,122.0,left
0.6732109067185554,0.7011368041635713,0.5188733312250058,0.2554026215286642,0.8879917143292637,0.7880152075212781,0.43694320721776947,0.694701575372429,0.7691143234005775,0.7786445712692753,0.7187794709905457,0.35516304755615913,0.8144655587837892,0.7190720479412,123.0,left
0.7150089787825422,0.7233357253029133,0.5379967990185293,0.26183247154187583,0.9087762582985199,0.8066458594025203,0.44996524888660616,0.7228966412359057,0.7939232187348129,0.7747452379174344,0.7445192467407988,0.3728264250006035,0.8178720027165376,0.7648193433366473,124.0,left
0.7042440878125831,0.7693563952193578,0.5425260918318529,0.2712981766843958,0.9699776366049413,0.7774408982601262,0.4485947824385619,0.7433152901945608,0.810125654692575,0.8083172854633958,0.753098566875968,0.38124982858750656,0.8184733194322646,0.7680414331794516,125.0,left
0.6700451170255128,0.7709792228571182,0.5349779093950815,0.27701344775673586,0.9797915828314174,0.7608257703242156,0.4400274093290726,0.707340104370596,0.7989872031224703,0.822612091398021,0.765014490990918,0.3722820448203894,0.8220796935420696,0.7338916980264045,126.0,left
0.6877771573499629,0.7152143699631424,0.5369905024775115,0.27433471204108795,0.8839500308955479,0.7920443376915269,0.44516731111231067,0.6786580866868395,0.7772155413796558,0.7940224795289392,0.76072483092352,0.3703808539627662,0.8246841274898342,0.7326033528875833,127.0,left
0.7086773993974447,0.7325386220603463,0.5475594912932458,0.2754060702817869,0.8464204274332765,0.8036254500649438,0.4485947824385619,0.6922705193259446,0.7868344119530075,0.789907020656015,0.7492845271800075,0.3804342932604925,0.8194752595944621,0.7403358777125142,128.0,left
0.7048760397359999,0.7720638573394218,0.5530950806475907,0.278442605638479,0.9272518971505797,0.7643505400779329,0.43797170965687293,0.7092860601248248,0.8015191953160983,0.8050679784881112,0.7507150189841791,0.3872286960801983,0.8152675687689301,0.7545101282330648,129.0,left
0.6839782097190046,0.7384958635422585,0.5415197952904443,0.2766563283430772,0.9532325771119226,0.7452155277805499,0.42597686522113243,0.7297028575554574,0.7969623807283188,0.7868746641082991,0.7497619628961889,0.38124982858750656,0.8214783768263425,0.7448463126946443,130.0,left
0.6808112140109621,0.7265834426213864,0.5339716128536693,0.27576318969544555,0.896072882239217,0.7603214099080748,0.42117892744683694,0.7428301899019267,0.7934179773374179,0.7816761029103381,0.7626309430991292,0.3918476480654487,0.836104566534976,0.7403358777125142,131.0,left
0.7086773993974447,0.7682738227795873,0.5520887841061786,0.2825504992360095,0.9018473439894592,0.7552873943455776,0.42426312955814005,0.7467183983543375,0.813164816686081,0.8083172854633958,0.7850341148696014,0.4092388354196803,0.8417148209690195,0.7725518681615782,132.0,left
0.7105756671976806,0.777476719537443,0.5722204651966294,0.28844398990141684,0.9255191188340568,0.7396771518019118,0.4235778963339847,0.7510935586274066,0.8217712760621598,0.8143819985588276,0.7664449827950897,0.39728213537792456,0.8274892547068555,0.7609543079191745,133.0,left
0.7156433427364455,0.7693563952193578,0.5837957505533815,0.28647949301294773,0.8995384388722627,0.7598189672119506,0.43111676700436874,0.7277587533292529,0.8060760099042756,0.7996532917690669,0.7497619628961889,0.4010865869795772,0.8174713792702244,0.7744831588750714,134.0,left
0.7238756019522654,0.7785592919767907,0.5641681761113944,0.2816573605882384,0.8954967554385469,0.7819743888465194,0.43831367366581375,0.6961587277783554,0.7893664041466391,0.7925063012550808,0.7712102632342983,0.4206521902246365,0.8218790002728129,0.7886598633861119,135.0,left
0.7074110835201317,0.7698966504177704,0.5400093921009628,0.2793357442862492,0.9168596251659515,0.7719025222814881,0.43146003621958506,0.7243556451694761,0.8005067841192233,0.808100335035828,0.7669206031665272,0.41249994178453164,0.8198758830407753,0.753864728668411,136.0,left
0.7042440878125831,0.7606937536599148,0.55359918729566,0.280049983113428,0.9197468560408453,0.7653573431905887,0.428717798117221,0.7603308309934409,0.8151896390802289,0.8091834373608657,0.7502393986127416,0.40951102550989305,0.8110598779433982,0.7551555277982267,137.0,left
0.6966437805196826,0.7682738227795873,0.5591347766500014,0.2771923475771887,0.9220557611580418,0.7633437369656679,0.4215221966620515,0.7010208398717026,0.7681019122037025,0.7712798054210674,0.7492845271800075,0.4179344290967961,0.8086553741726901,0.7429125679906612,138.0,left
0.708043035443545,0.7720638573394218,0.5661807691938243,0.2814784607677865,0.8891461668876381,0.7437062819721643,0.40678576672695144,0.6373356884768935,0.7103790467519868,0.7595842800855079,0.7445192467407988,0.41684773862298385,0.8120618181054384,0.7480659485469552,139.0,left
0.7352748568761243,0.7850567886571156,0.5903376364491351,0.2989820736258517,0.8620088354104425,0.7426994788595049,0.41261155433734764,0.6825481466668943,0.7437982582668621,0.8003033181454544,0.76072483092352,0.4220110707886615,0.8154674989459867,0.7796389934218553,140.0,left
0.7435095281224342,0.7931791750177268,0.5993962220753879,0.299160293218919,0.9318697073849691,0.7547830339294368,0.43283050266762935,0.7510935586274066,0.8030387763128513,0.8156812264051183,0.7807444548022016,0.4301633192287646,0.818272626163008,0.7828610832651606,141.0,left
0.7397081684609859,0.7845165334587065,0.5938606327210465,0.2816573605882384,0.9740193200386571,0.7457198881970815,0.43420096911567363,0.748177402287908,0.7827847671647081,0.7998702421966346,0.7635839991867481,0.4214677255516488,0.8178720027165376,0.7847948279691401,142.0,left
0.7131107109823063,0.7677315055386451,0.5742330582790593,0.2734415733933169,0.9099307108568908,0.7522650672879845,0.4307748029954279,0.7180363806705827,0.7372146928824552,0.7879577664335065,0.7244996228621172,0.4076087997090685,0.8078541272799065,0.7583751636505376,143.0,left
0.7004427281511383,0.7433684705414443,0.5671870657352365,0.27147707650484776,0.8568126994179046,0.7875127648251539,0.4437968446642664,0.7238705448768421,0.7275938939070219,0.771929831797455,0.6939945666726555,0.4165755485329825,0.8020431795766063,0.7583751636505376,144.0,left
0.7074110835201317,0.734705828982424,0.565676662545755,0.26826232155508833,0.8527710159841853,0.8076526625147817,0.45373598942780546,0.7433152901945608,0.7362022816855767,0.7738790860199645,0.6839847547333147,0.4230977612624738,0.8070528803871229,0.7770623031437083,145.0,left
0.7219773341520295,0.7596111812205635,0.5591347766500014,0.27379869280697644,0.8729794331527714,0.7890220106339338,0.4513370205406577,0.7613028831067332,0.7777207827770543,0.804418777018209,0.7130611344637199,0.4146733227321562,0.8150668754995163,0.7699751778834312,146.0,left
0.7435095281224342,0.7753115746583177,0.5651744726528065,0.2766563283430772,0.8920333977629831,0.7578034432666225,0.44311161144010924,0.7651929430867881,0.8248104380556658,0.8106996156347241,0.7478558507205797,0.4244566418262874,0.8184733194322646,0.7893028089602758,147.0,left
0.7384418525841632,0.7785592919767907,0.58429794044633,0.27754946699084737,0.8920333977629831,0.7623369338530122,0.4365999380028214,0.7472053501749958,0.8096204132951765,0.7983540639227762,0.7507150189841791,0.43451111606743,0.8148669453224597,0.7931702983682385,148.0,left
0.7574414148004287,0.8137521754550932,0.6039255148883207,0.29201654449222136,0.9030017965482813,0.7849947981840959,0.4441401138792145,0.7433152901945608,0.7888611627492406,0.8076672590870082,0.7545290586801396,0.4301633192287646,0.8126623717289654,0.7815727381258348,149.0,left
0.7840412843095983,0.8554404935703381,0.612481910621625,0.301124790107389,0.9284063497089505,0.7895263710500746,0.4609315908832432,0.7583867267672364,0.7974676221257173,0.802252572367963,0.7678736592545174,0.428804438664951,0.8166701323774408,0.7893028089602758,150.0,left
0.7682087178008778,0.8500276313727433,0.6044296215367808,0.29862495421219304,0.905889027423175,0.7905331741627304,0.4660727978724868,0.7433152901945608,0.771139145794729,0.775395264293822,0.7454723028287891,0.4279889033379387,0.8102586310506146,0.7847948279691401,151.0,left
0.751741787338748,0.8148347478944409,0.5822853473639,0.2979100351576287,0.87875389490301,0.7804632253177193,0.46196009332234667,0.7175494288499245,0.7372146928824552,0.7797268486878286,0.709724530483939,0.41548885805917024,0.7922259974092318,0.7712635230227569,152.0,left
0.706142355612819,0.7910119680960754,0.55561178037809,0.299160293218919,0.9220557611580418,0.7452155277805499,0.44516731111231067,0.7175494288499245,0.747340733255685,0.8046349025392914,0.7197325270781647,0.3961954449041123,0.7886196232994269,0.7210057926451796,153.0,left
0.6630779676715193,0.7818090713382198,0.5470553846447856,0.2959455382691596,0.9162812994078031,0.7275935967323743,0.4232346271190366,0.7063680522576821,0.7721515569920019,0.8059349552920665,0.7368929826936199,0.3945654091932873,0.798036182020331,0.7036069982908337,154.0,left
0.6922104689348245,0.7661066158579324,0.5510824875651572,0.28701551224705923,0.8435331965583828,0.7361523820481946,0.42597686522113243,0.6990767356454963,0.7863291705556126,0.7914231989298735,0.7206873985108988,0.4048910385812281,0.8046483766165711,0.7338916980264045,155.0,left
0.7314759092451659,0.7612340088583238,0.5571221835675715,0.28487211553799874,0.8591216045350976,0.7432019215556291,0.44345488065532557,0.7243556451694761,0.792405566140145,0.7981371134952084,0.7168733588149365,0.40951102550989305,0.8066514938484524,0.7274475183402984,156.0,left
0.7264082337064011,0.788306568018541,0.5727226550895779,0.2963026576826797,0.9168596251659515,0.7603214099080748,0.45167898454959854,0.743802242015219,0.7934179773374179,0.8063680312408863,0.7378460387812371,0.41983665489762245,0.8030451197386475,0.729381263044278,157.0,left
0.6960094165662767,0.8002169268964607,0.5626577729219129,0.30255394798913127,0.8897222936883082,0.7703932764731025,0.44996524888660616,0.7374811259883014,0.7979747919251974,0.7903400966048348,0.7302197747340582,0.42119553546164745,0.8014426259530802,0.7274475183402984,158.0,left
0.6839782097190046,0.777476719537443,0.5304486165817579,0.28612237359928905,0.8539254685430073,0.7573010005704983,0.44996524888660616,0.7379680778085795,0.7974676221257173,0.7829761556631123,0.6873213587130937,0.4062499191450417,0.7954317480727235,0.7190720479412,159.0,left
0.7017090440279574,0.7655663606595233,0.5400093921009628,0.277370567170256,0.90935238509919,0.7487402975342672,0.4551064558758515,0.755955670720752,0.7969623807283188,0.7961878592725311,0.6801725303820962,0.407336609618854,0.7721894834437686,0.7332462984617507,160.0,left
0.7156433427364455,0.7807264988988685,0.568697468924718,0.29201654449222136,0.9278280239512497,0.7633437369656679,0.45887589121104355,0.755955670720752,0.8136700580834759,0.8048518529670288,0.7264057350377247,0.41956549975082424,0.7625722314534507,0.7184266483760418,161.0,left
0.7245099659061651,0.7926368577767882,0.5822853473639,0.30219682857561203,0.8654743920434882,0.7633437369656679,0.4437968446642664,0.7253276972827685,0.8035440177102497,0.7998702421966346,0.7664449827950897,0.4249999870633001,0.7860144262594622,0.7222941377840009,162.0,left
0.7156433427364455,0.7780190367783817,0.5671870657352365,0.2954095190350481,0.8591216045350976,0.7437062819721643,0.4225493938948812,0.6917835675052864,0.7655699200096766,0.799220215820247,0.7631083788153088,0.4214677255516488,0.7928265510327588,0.7287358634796206,163.0,left
0.7169096586132646,0.7677315055386451,0.55762437346052,0.2893371285490485,0.9053107016654742,0.7618325734368714,0.4338590051067328,0.705882951965048,0.764557508812798,0.7998702421966346,0.7597717748355297,0.4244566418262874,0.7773991144313417,0.7338916980264045,164.0,left
0.7321102731985718,0.7742290022185472,0.5691996588176664,0.28880178954246105,0.9122396159740838,0.7870084044090131,0.45339272021285915,0.7394270817421518,0.8015191953160983,0.7974879120253053,0.7640614349033008,0.4347822712142282,0.780204241648363,0.7551555277982267,165.0,left
0.7207086062447203,0.7818090713382198,0.5646703660043428,0.2825504992360095,0.8654743920434882,0.7603214099080748,0.45030851810155426,0.7476904504676298,0.8136700580834759,0.7953217073750602,0.7497619628961889,0.4263588676271137,0.7894208701922105,0.7338916980264045,166.0,left
0.7131107109823063,0.7823493265366288,0.55359918729566,0.2780854862249589,0.8614327086097724,0.7316208091822158,0.4479095492144065,0.7491494544012003,0.7898735739465135,0.7892569942796284,0.721640454598889,0.4206521902246365,0.7894208701922105,0.7371137878697134,167.0,left
0.6896778371806853,0.7677315055386451,0.5395072022080107,0.2671902830868653,0.896651207997369,0.733634415407133,0.44825281842962106,0.748177402287908,0.7817723559674352,0.7894739447073649,0.6897049066052556,0.42364110649927333,0.7924259275862884,0.7557984733723906,168.0,left
0.677644218303417,0.7628588985390365,0.5400093921009628,0.2607607731873456,0.9006928914310848,0.7492446579507988,0.452707486988702,0.7501215065141142,0.7954427997315658,0.8007363940941055,0.6944720023892081,0.42364110649927333,0.8002399925216253,0.7442009131299869,169.0,left
0.6947431006889602,0.7720638573394218,0.5430301984799222,0.27290555415920537,0.8862589360127409,0.7638461796617921,0.46196009332234667,0.7423432380816486,0.7853167593583397,0.8072341831383572,0.7378460387812371,0.4293477839017523,0.8072528105641794,0.7570868185112118,170.0,left
0.6839782097190046,0.7747692574169562,0.5405134987494229,0.282014480001898,0.8383370605658413,0.752769427704516,0.4465390827663622,0.7180363806705827,0.7453159108615335,0.7931555027248143,0.7330789429972864,0.4304344743755646,0.8076534340106489,0.7609543079191745,171.0,left
0.7162752946598587,0.7834318989764029,0.5727226550895779,0.28415787671081905,0.8215942000303045,0.7341387758232738,0.4458538495424733,0.7165773767370105,0.7270886525096234,0.7721467822250228,0.6882744148010858,0.43288004541340186,0.799238815451786,0.7738402133009039,172.0,left
0.7479428397072958,0.7893891404578923,0.5848020470947937,0.2857652541857689,0.8706705280355749,0.7442087246682849,0.47224120209482834,0.748662502580542,0.7407590962733597,0.7738790860199645,0.6849378108213049,0.43559780654124225,0.7896208003692671,0.7706181234575986,173.0,left
0.699810776227725,0.7720638573394218,0.55561178037809,0.2795139638793165,0.8833717051373959,0.749747100646923,0.4715559688709394,0.76470599126651,0.7407590962733597,0.7795107231667453,0.709724530483939,0.428804438664951,0.7900221869079376,0.7409788232866816,174.0,left
0.6656118054406548,0.7612340088583238,0.5410176053974922,0.27094105727073625,0.8406459656830378,0.7356499393520739,0.45373598942780546,0.7544966667871815,0.7377218626823296,0.7736629604988812,0.7020982664363871,0.4233699513524751,0.7882189998531137,0.7435555135648286,175.0,left
0.6744772225953781,0.7655663606595233,0.5465531947518336,0.27558497010237826,0.8221703268309746,0.7356499393520739,0.44825281842962106,0.7331059657152323,0.7498727254493129,0.7870916145360356,0.6839847547333147,0.412772131874533,0.7830093688653843,0.7287358634796206,176.0,left
0.7010770921045442,0.7639414709788106,0.5666829590867728,0.2809431217610596,0.8366042822493185,0.7411883153307084,0.43968414011385804,0.7000487877584103,0.7518994762459403,0.8020356219403952,0.709724530483939,0.4160322032959698,0.7900221869079376,0.7377567334438773,177.0,left
0.7314759092451659,0.7644837882197493,0.5903376364491351,0.2789786248725905,0.869516075477204,0.7391747091057876,0.43283050266762935,0.6820611948466162,0.7483550728550394,0.7873077400571189,0.7459479232002266,0.44402121012814355,0.8002399925216253,0.7867261186821288,178.0,left
0.7365411727534408,0.7693563952193578,0.5898335298006749,0.2789786248725905,0.8856806102545924,0.7376635455769911,0.4389989068899691,0.6849773511857347,0.7493674840519144,0.7790776472179255,0.7364155469770672,0.45706460064392473,0.7984368054668014,0.7970353337857112,179.0,left
0.7200766543213071,0.7704389676587091,0.5732267617376472,0.2782637058180262,0.8394915131246634,0.7361523820481946,0.4444820778881535,0.6791450385071194,0.7458230806610135,0.7953217073750602,0.7187794709905457,0.44402121012814355,0.7930272443020154,0.8021911683324952,180.0,left
0.6991764122738218,0.776394147097669,0.5571221835675715,0.2780854862249589,0.8296775668977396,0.7346431362398089,0.4365999380028214,0.6883804593455096,0.7584811132278713,0.8037687506418214,0.7326033226258488,0.42826109342794005,0.7950311246262531,0.7931702983682385,181.0,left
0.699810776227725,0.7731464297791959,0.5571221835675715,0.2786208252315463,0.8724011073950706,0.7421951184433642,0.4300895697715408,0.7122022164639432,0.7843043481614611,0.7940224795289392,0.7454723028287891,0.42989112913876326,0.7948304313569965,0.7777052487178722,182.0,left
0.6909441530580018,0.7596111812205635,0.5626577729219129,0.2787997250521377,0.8493076583086214,0.7492446579507988,0.43283050266762935,0.7126891682846015,0.790885985143392,0.7896900702284482,0.7407052070448366,0.4331522355034032,0.7958323715190367,0.7661076884754685,183.0,left
0.6713114329028294,0.7617763260996853,0.5525928907546387,0.2795139638793165,0.8158197382800658,0.7542805912333126,0.43831367366581375,0.6942146235521491,0.7812651861679552,0.7981371134952084,0.7326033226258488,0.4247277969730874,0.8008413092373532,0.7409788232866816,184.0,left
0.6820775298882786,0.7709792228571182,0.5490698944827272,0.278442605638479,0.8441115223160836,0.7693845556404302,0.44516731111231067,0.7083140080115324,0.79291080753754,0.8083172854633958,0.7302197747340582,0.4293477839017523,0.799238815451786,0.761597253493342,185.0,left
0.6884115213038626,0.7677315055386451,0.5520887841061786,0.2777283668113002,0.8648960662853362,0.7739180462268198,0.4485947824385619,0.7297028575554574,0.8015191953160983,0.79575478332388,0.7378460387812371,0.4317933549395896,0.7920253041399752,0.756443872937048,186.0,left
0.6782785822568265,0.759068863979202,0.5551076737300207,0.2780854862249589,0.8394915131246634,0.7432019215556291,0.44345488065532557,0.705882951965048,0.7756959603829028,0.7760452906702096,0.7254526789501075,0.42038000013463517,0.7862151195288751,0.7210057926451796,187.0,left
0.6656118054406548,0.756361401859138,0.55561178037809,0.2786208252315463,0.8158197382800658,0.7160124843585667,0.43420096911567363,0.6742829264137722,0.7402538548759612,0.7758283402426418,0.6944720023892081,0.4171199287131966,0.7840113090275809,0.726804572766131,188.0,left
0.6763779024261005,0.7655663606595233,0.5530950806475907,0.2793357442862492,0.8614327086097724,0.7301096456534157,0.43317377188257744,0.6932425714388568,0.7402538548759612,0.7743121619687843,0.6987616624566062,0.43260889026660365,0.7870163664216587,0.7384021330085346,189.0,left
0.7251419178295819,0.7791016092181557,0.5787623510919886,0.2809431217610596,0.9030017965482813,0.7593146067954191,0.4458538495424733,0.7467183983543375,0.7848095895588596,0.7790776472179255,0.7130611344637199,0.4519023034216616,0.7940291844642129,0.7731948137357456,190.0,left
0.7188103384439906,0.7785592919767907,0.594362822613995,0.2809431217610596,0.8400698388823642,0.7643505400779329,0.4506504821104951,0.7530376628536111,0.811645235689328,0.7968378856489187,0.6920884544970463,0.45108676809464754,0.7936285610177425,0.7757739580048835,191.0,left
0.6681444371947904,0.7628588985390365,0.5626577729219129,0.2782637058180262,0.7892607325605709,0.7426994788595049,0.4338590051067328,0.7063680522576821,0.7787331939739328,0.7940224795289392,0.6725462663349173,0.4361411517780418,0.7824080521496573,0.7371137878697134,192.0,left
0.6738452706719649,0.7574439742984858,0.5379967990185293,0.27701344775673586,0.8262120102646939,0.7286003998446393,0.4201510776107362,0.6869233069399634,0.7407590962733597,0.7704136535235975,0.6720688306183646,0.43260889026660365,0.7703862963887875,0.717138303237217,193.0,left
0.7017090440279574,0.7688140779779964,0.5460490881037643,0.2802282027064962,0.856236572617231,0.7492446579507988,0.4393421761049172,0.6966456795986335,0.7407590962733597,0.7686813497286558,0.6725462663349173,0.43586896168804046,0.7737927403215359,0.71456161295907,194.0,left
0.7162752946598587,0.7720638573394218,0.5631599628148614,0.2893371285490485,0.8596999302932495,0.7562941974582333,0.4578473887719401,0.710743212530371,0.7534171288402174,0.7773445185165002,0.681601206841524,0.44130448394371946,0.7890202467458973,0.7622426530585003,195.0,left
0.7251419178295819,0.7666489330988746,0.5777560545509708,0.2968386769167912,0.8637416137269653,0.7296072029572951,0.4441401138792145,0.7292177572628233,0.7594935244251442,0.7717128813697185,0.6858908669089239,0.4456522807821717,0.7942291146412694,0.7719064685969244,196.0,left
0.7207086062447203,0.7677315055386451,0.5747352481720078,0.2948741800283212,0.8429570697577091,0.733634415407133,0.4444820778881535,0.7204674367170654,0.7605059356220227,0.784275383509403,0.6801725303820962,0.4429345196543313,0.7926266208557022,0.7390450785827021,197.0,left
0.6979100963969991,0.7677315055386451,0.5485657878342671,0.2850510153585901,0.8169741908388879,0.7613282130203363,0.45339272021285915,0.677199082753269,0.747847903055165,0.7948886314264092,0.6849378108213049,0.43695668710505586,0.7920253041399752,0.7358254427303876,198.0,left
0.6738452706719649,0.7444510429812183,0.536488312584563,0.27433471204108795,0.8337192503314554,0.749747100646923,0.4355727407697252,0.6417117745134053,0.7326578782946758,0.7777775944651513,0.6820786425577055,0.4307066644657773,0.7914247505164482,0.7126278682550904,199.0,left
0.7017090440279574,0.7336232565426499,0.5697037654657358,0.27415581222049656,0.8799083474618321,0.7316208091822158,0.4290610673324373,0.6470580611355636,0.7407590962733597,0.7695475016261266,0.6725462663349173,0.4404889486167054,0.7932279375714293,0.729381263044278,200.0,left
0.7397081684609859,0.759068863979202,0.6019129218058907,0.28237159941541723,0.8833717051373959,0.7522650672879845,0.44311161144010924,0.6708798182539955,0.7513923064460659,0.7814599773892548,0.6858908669089239,0.4576089808241388,0.7771984211620842,0.7731948137357456,201.0,left
0.7403425324148891,0.7796418644165648,0.5978858188859064,0.2850510153585901,0.8360281554486484,0.7437062819721643,0.4338590051067328,0.6776860345735489,0.746328322058412,0.7827592052355445,0.7073409825917771,0.45380452922248793,0.7902221170849941,0.7635309981973215,202.0,left
0.7441414800458475,0.7720638573394218,0.5888272332596536,0.2804071025269481,0.8215942000303045,0.7014090449275567,0.41055520206214347,0.6504611692953404,0.7387342738792082,0.7721467822250228,0.7054348704161679,0.4519023034216616,0.8092566908884171,0.7654647429013046,203.0,left
0.7397081684609859,0.7639414709788106,0.5802727542814701,0.2813002411747192,0.8331409245737547,0.7124877146048494,0.4078136165630504,0.6251822597713605,0.7356970402881817,0.7734460100713134,0.6911353984094273,0.4586956712979511,0.6796233376511767,0.7796389934218553,204.0,left
0.7219773341520295,0.767191250340236,0.5762456513614893,0.28647949301294773,0.7961896468696352,0.7235644665621219,0.41226893772540407,0.6392807184669209,0.7275938939070219,0.7701975280025142,0.6806481507535338,0.45706460064392473,0.5537966702467418,0.7847948279691401,205.0,left
0.7333765890758883,0.7666489330988746,0.58631053352876,0.28612237359928905,0.7806012388924657,0.6943604642801322,0.42597686522113243,0.6674767100942205,0.7286082335063764,0.7725798581738426,0.6768359264023154,0.4491845422938212,0.6663993300049533,0.7751285584397252,206.0,left
0.7694750336781908,0.7726041125378345,0.6049318114297328,0.28362185747670754,0.8285209153818869,0.7139969604136294,0.45476318666090343,0.6893543629864478,0.7483550728550394,0.7998702421966346,0.6849378108213049,0.447554506582998,0.8106592544969278,0.7738402133009039,207.0,left
0.7460421598765699,0.7634012157804015,0.5968795223444978,0.2796928636997693,0.8550799211013818,0.7492446579507988,0.45030851810155426,0.6932425714388568,0.7529118874428189,0.8074511335659249,0.6849378108213049,0.4448367454551576,0.7830093688653843,0.778350648283034,208.0,left
0.6713114329028294,0.734163511741059,0.5546054838370686,0.27362047321390914,0.8342953771321255,0.719537254112284,0.4146672540095473,0.6708798182539955,0.7417715074706326,0.7844923339369707,0.669685282726574,0.4209233453714347,0.7479460417449735,0.7190720479412,209.0,left
0.6751115865492814,0.7363286566201808,0.5420239019389044,0.27272733456613807,0.8123563806044984,0.7044313719851534,0.41980780839578813,0.6577543374355503,0.7392395152766067,0.7821100037656423,0.6730218867063549,0.4114132513107194,0.7788016780398523,0.702318653151508,210.0,left
0.699810776227725,0.7628588985390365,0.5566180769195022,0.2791568444656578,0.8302536936984097,0.7442087246682849,0.45167898454959854,0.676713982460635,0.7620255166187722,0.8070172327106206,0.6949476227606457,0.4247277969730874,0.7830093688653843,0.7332462984617507,211.0,left
0.6808112140109621,0.767191250340236,0.5480616811861978,0.2814784607677865,0.8348737028902775,0.7532718704006403,0.4458538495424733,0.6976177317119259,0.7686071536010974,0.8039857010695579,0.6930415105850365,0.4244566418262874,0.784411932473895,0.7061861425594707,212.0,left
0.6871427933965535,0.7541962569800127,0.53548009928803,0.2754060702817869,0.7961896468696352,0.7371591851608503,0.42289266311009577,0.6830332469595284,0.7372146928824552,0.7782106704139711,0.6787420385779246,0.42282557117226105,0.7906227405314645,0.7132732678197442,213.0,left
0.6960094165662767,0.7569037191000767,0.5425260918318529,0.2752278506887187,0.7886846057599008,0.733634415407133,0.4174088395086404,0.6937295232595151,0.7498727254493129,0.7816761029103381,0.697808606368989,0.42690221286412644,0.7942291146412694,0.7435555135648286,214.0,left
0.7004427281511383,0.7634012157804015,0.5641681761113944,0.2811213413541269,0.8256358834640203,0.7416907580268326,0.4180947253358003,0.7316488133096861,0.790378815343912,0.8059349552920665,0.7140141905513371,0.43206554502959094,0.8114605013897114,0.7493542936862809,215.0,left
0.6928448328887242,0.7612340088583238,0.5591347766500014,0.28344363788364024,0.8279447885812168,0.7371591851608503,0.409527352226311,0.714633272510806,0.7772155413796558,0.8070172327106206,0.693517130956474,0.43097781961257553,0.7990381221825285,0.7313150077482575,216.0,left
0.6757435384726946,0.7639414709788106,0.5400093921009628,0.28487211553799874,0.8088908239714563,0.7180260905834874,0.4047294144520137,0.6703947179613614,0.7382271040797281,0.7844923339369707,0.6906579626928746,0.4206521902246365,0.7882189998531137,0.6913664924742626,217.0,left
0.699810776227725,0.7726041125378345,0.5666829590867728,0.28772975107423804,0.8204397474719336,0.7180260905834874,0.409527352226311,0.6849773511857347,0.7493674840519144,0.7916393244509567,0.7202099627947174,0.42554333230009966,0.7944298079105261,0.7164953576630531,218.0,left
0.7010770921045442,0.7753115746583177,0.5812790508228822,0.2852292349516574,0.825057557706323,0.7205440572249397,0.40678576672695144,0.6893543629864478,0.7483550728550394,0.7996532917690669,0.7149672466393273,0.4301633192287646,0.6896412130878078,0.724225428497494,219.0,left
0.679544898134143,0.7661066158579324,0.563664069463325,0.28701551224705923,0.8129325074051721,0.7145013208297701,0.4043867978398037,0.6397667445233779,0.7093666355551118,0.7764783666190294,0.681601206841524,0.41956549975082424,0.4956921533128895,0.6926548376130839,220.0,left
0.6928448328887242,0.7677315055386451,0.5752393548200772,0.2954095190350481,0.8319864720149326,0.7316208091822158,0.41946519178384456,0.6499760690027063,0.7437982582668621,0.7838423075605832,0.6863683026254765,0.41847777433380884,0.4634339534093437,0.7106965775415972,221.0,left
0.6941111487655469,0.7807264988988685,0.5782582444439193,0.29273078331940017,0.8360281554486484,0.7502514610630637,0.42460639877308815,0.6893543629864478,0.79291080753754,0.8117827179599315,0.7040043786119963,0.4217388806984488,0.6279299404978946,0.724225428497494,222.0,left
0.6827118938416881,0.7704389676587091,0.55359918729566,0.2818362604088298,0.7834862708103323,0.733634415407133,0.4129541709492912,0.67331087430086,0.7625307580161707,0.7938055291012018,0.697808606368989,0.4187499644238102,0.7549588597875267,0.7210057926451796,223.0,left
0.6928448328887242,0.7487813327394655,0.5470553846447856,0.27754946699084737,0.763280052599228,0.7306140060695565,0.4345442383306217,0.6888674111661679,0.7518994762459403,0.7727959836949259,0.6987616624566062,0.4176632739499979,0.7677818624411801,0.7197174475058539,224.0,left
0.7036097238586834,0.755278829419364,0.5651744726528065,0.2766563283430772,0.8262120102646939,0.7573010005704983,0.4612748600981913,0.7297028575554574,0.7944303885342929,0.8029025987443505,0.701143395003653,0.41847777433380884,0.7621716080071366,0.7345370975915664,225.0,left
0.6947431006889602,0.7661066158579324,0.5697037654657358,0.27683522816366857,0.8371826080074705,0.7522650672879845,0.4424263782162221,0.7010208398717026,0.7746835491856299,0.8087503614122156,0.6963781145648174,0.4171199287131966,0.7820074287033432,0.7416242228518399,226.0,left
0.6909441530580018,0.7509485396611169,0.5601410731914136,0.2813002411747192,0.7609689485245568,0.7296072029572951,0.41535313983643896,0.6655326058680142,0.7326578782946758,0.7792937727390088,0.6987616624566062,0.4160322032959698,0.7998393690753121,0.724225428497494,227.0,left
0.7181759744905811,0.7433684705414443,0.5712122519000964,0.2816573605882384,0.7673217360329474,0.72910284254076,0.41946519178384456,0.6922705193259446,0.7635450976155251,0.7868746641082991,0.7025738868078246,0.4334233906502032,0.7964336882347638,0.7628855986326677,228.0,left
0.7403425324148891,0.7623165812980979,0.5913439329901529,0.278442605638479,0.8383370605658413,0.7346431362398089,0.42563359600618433,0.7005357395790686,0.7792403637738072,0.8065841567619696,0.7102001508553766,0.44673897125598394,0.798637498736058,0.7880144638214546,229.0,left
0.7435095281224342,0.776394147097669,0.6089589143497136,0.2857652541857689,0.8412242914411863,0.7265848758996984,0.4180947253358003,0.6922705193259446,0.771139145794729,0.8042018265906412,0.7273587911257167,0.43994560337969446,0.8108591846739843,0.7841494284039818,230.0,left
0.7612403624318844,0.7910119680960754,0.6109715074321436,0.3004105512802102,0.8285209153818869,0.7275935967323743,0.4280325648933321,0.7194953846041532,0.8030387763128513,0.802252572367963,0.7449948671122364,0.44972788753062254,0.8168700625544973,0.8086328940281149,231.0,left
0.7530081032155707,0.797509464775974,0.5963773324515458,0.2979100351576287,0.8198614217137816,0.7426994788595049,0.4465390827663622,0.7467183983543375,0.8222784458620342,0.8029025987443505,0.7359399266056297,0.456521255406912,0.8118611248361818,0.7957469886463855,232.0,left
0.7188103384439906,0.7585265467382598,0.5878209367182414,0.2804071025269481,0.7684761885913183,0.7708957191692267,0.4564769223238958,0.748177402287908,0.8060760099042756,0.7990040902991637,0.7035269428958149,0.43396777083041727,0.8022438728458638,0.7577322180763737,233.0,left
0.6934767848121375,0.7298332219828119,0.5681933622762543,0.27111995709132763,0.7603928217238831,0.7980870740863057,0.4564769223238958,0.7345649696488046,0.7868344119530075,0.7951047569474925,0.6692096623551365,0.40570657390824216,0.7888195534764835,0.726804572766131,234.0,left
0.6890434732272759,0.756361401859138,0.5475594912932458,0.27362047321390914,0.8215942000303045,0.8006031230073507,0.4595611244351989,0.7442873423078531,0.7913931549432665,0.7903400966048348,0.681601206841524,0.4065221092352562,0.7898214936386809,0.726804572766131,235.0,left
0.7245099659061651,0.7807264988988685,0.565676662545755,0.28487211553799874,0.8475748799920986,0.8011074834238823,0.4660727978724868,0.7705401554727693,0.8303796638407182,0.8026856483167828,0.7326033226258488,0.4277177481911387,0.8086553741726901,0.7744831588750714,236.0,left
0.7428751641690248,0.7828916437779903,0.5898335298006749,0.29862495421219304,0.8371826080074705,0.7960715501413684,0.4523642177737539,0.7583867267672364,0.8632917055561133,0.8271606262195954,0.753098566875968,0.4263588676271137,0.8130629951752786,0.7680414331794516,237.0,left
0.7416088482917083,0.8007571820948698,0.5903376364491351,0.30416132546408114,0.8475748799920986,0.7734136858102847,0.4386569428810283,0.743802242015219,0.8516460841861342,0.8299760323395748,0.7502393986127416,0.41956549975082424,0.8090559976191596,0.7603089083545207,238.0,left
0.7390762165375726,0.8294525688928474,0.5817812407158307,0.30255394798913127,0.8429570697577091,0.7724068826980233,0.44345488065532557,0.7403991338554441,0.8278476716470866,0.8171974046789758,0.7559577351395674,0.42391329658948784,0.8074535038335924,0.7770623031437083,239.0,left
0.728308913537127,0.8364923828141109,0.5757434614685408,0.30058945110066215,0.8036946879789149,0.793555501220327,0.44516731111231067,0.7209525370096994,0.8096204132951765,0.808966486933298,0.7488089068085699,0.4230977612624738,0.8024445661152768,0.7583751636505376,240.0,left
0.7390762165375726,0.8245799618932388,0.5908398263420835,0.30201792875501976,0.8077363714126342,0.8006031230073507,0.4420831090010058,0.7199804848967872,0.8025316065133712,0.8000863677177179,0.7211630188823364,0.4133154771115457,0.797434865304604,0.748711348112117,241.0,left
0.7422432122456115,0.8050895338956465,0.594362822613995,0.30326818681631007,0.8262120102646939,0.7804632253177193,0.4523642177737539,0.7335929175358906,0.8040511875101242,0.7981371134952084,0.7025738868078246,0.4043476933442154,0.7958323715190367,0.7403358777125142,242.0,left
0.7270425976603043,0.7834318989764029,0.5717163585481657,0.2996963124530305,0.802540235420544,0.7366567424647297,0.4592191604262581,0.6990767356454963,0.7756959603829028,0.802252572367963,0.6930415105850365,0.4062499191450417,0.7950311246262531,0.7403358777125142,243.0,left
0.7086773993974447,0.7644837882197493,0.5505783809166971,0.29201654449222136,0.8031185611782448,0.7114809114925844,0.44825281842962106,0.6621294977082393,0.7291134749037749,0.7849254098857905,0.681601206841524,0.39945655126875224,0.7894208701922105,0.7332462984617507,244.0,left
0.7048760397359999,0.7650240434181583,0.5515846774581092,0.2911234058444503,0.8290992411400389,0.7301096456534157,0.44619581355141413,0.6752549785270645,0.7255690715128704,0.7730129341224936,0.6749279988819641,0.3850542801891592,0.7806048650948325,0.7010303080126867,245.0,left
0.7162752946598587,0.7769364643390304,0.5566180769195022,0.2963026576826797,0.800231330303351,0.749747100646923,0.45167898454959854,0.6854643030063929,0.7584811132278713,0.7955386578027968,0.6749279988819641,0.38478209009915787,0.7749946106607899,0.711984922680923,246.0,left
0.6966437805196826,0.7726041125378345,0.5405134987494229,0.2923736639057406,0.7580839166066902,0.7467266913093464,0.4424263782162221,0.6806021909130457,0.7665823312069495,0.8046349025392914,0.6763584906861357,0.37961979287689473,0.7745939872143195,0.699741962873361,247.0,left
0.6706782749644198,0.7606937536599148,0.5334675062056,0.2811213413541269,0.7655889577164245,0.7396771518019118,0.42631882923007325,0.6810891427333239,0.746328322058412,0.7821100037656423,0.6534796985438529,0.37309758014740346,0.770186366211731,0.6739676981199167,248.0,left
0.6637111256099288,0.7585265467382598,0.5430301984799222,0.2787997250521377,0.777714008017572,0.7426994788595049,0.4146672540095473,0.6864363551193051,0.7569615322311183,0.7834092316119321,0.6234511703982015,0.3834242444785456,0.7623723012763941,0.6990965633087036,249.0,left
0.6713114329028294,0.7606937536599148,0.5435323883728742,0.2852292349516574,0.7875279542440481,0.7447130850844257,0.41535313983643896,0.6888674111661679,0.7797475335732873,0.8059349552920665,0.6215450582225923,0.38287986429833154,0.7621716080071366,0.7081174332729603,250.0,left
0.7036097238586834,0.7639414709788106,0.5530950806475907,0.2798710832928366,0.7782901348182456,0.7396771518019118,0.43762844044192484,0.6815760945539822,0.7832919369641882,0.8000863677177179,0.6487126027599022,0.374999805948228,0.7669806155483965,0.7081174332729603,251.0,left
0.7162752946598587,0.7677315055386451,0.5702059553586842,0.27254843474568613,0.7534639074152736,0.7462223308932057,0.4557916891000069,0.6849773511857347,0.7989872031224703,0.7903400966048348,0.664442566571184,0.37826091231286796,0.7607690443986259,0.7106965775415972,252.0,left
0.7162752946598587,0.7693563952193578,0.5802727542814701,0.28630127341988043,0.7667434102747954,0.7542805912333126,0.43625797399388055,0.6912984672126523,0.8045564289075227,0.7968378856489187,0.6496674741926345,0.3872286960801983,0.7455419195203659,0.7345370975915664,253.0,left
0.7340085409993016,0.7807264988988685,0.5853042369877421,0.3009465705143217,0.7667434102747954,0.740181512218447,0.4187799585596874,0.6874084072325974,0.7554438796368448,0.799220215820247,0.6391802265371123,0.3915764929186505,0.7423361688570305,0.756443872937048,254.0,left
0.7460421598765699,0.7920945405354232,0.5983899255339757,0.30201792875501976,0.7615472742827052,0.7361523820481946,0.4393421761049172,0.6844922508931006,0.7458230806610135,0.7972709615977385,0.6434698866045121,0.3872286960801983,0.7493486053534841,0.7332462984617507,255.0,left
0.7593420946311547,0.798592037215748,0.6160049068935365,0.30183970916195246,0.7806012388924657,0.7517626245918603,0.45853262199609546,0.6903264150997401,0.7888611627492406,0.7922893508273443,0.6401341902971023,0.39782651555813864,0.7533556029096031,0.7596659627803533,256.0,left
0.7568094628770154,0.8137521754550932,0.612481910621625,0.30219682857561203,0.7800229131347685,0.7447130850844257,0.44962328487766534,0.7131742685772355,0.7994943729219504,0.7925063012550808,0.6506205302806247,0.4122277516943189,0.7605691142215694,0.8009028231936739,257.0,left
0.7511074233848447,0.8419052450117057,0.6190237965173786,0.30130368992784096,0.7956113211114832,0.7356499393520739,0.45544841988479057,0.7335929175358906,0.8040511875101242,0.8061510808131498,0.6811255864700865,0.41304328702133297,0.7707869198352579,0.8021911683324952,258.0,left
0.7606084105084712,0.8419052450117057,0.6321094850636122,0.30398310587101385,0.8210158742726037,0.7411883153307084,0.46024635765908783,0.7194953846041532,0.7863291705556126,0.7994371662479836,0.6677791705509648,0.40869549018288076,0.7739926704985924,0.7867261186821288,259.0,left
0.7226092860754427,0.7872219335362374,0.592350229531565,0.2963026576826797,0.7430716354306455,0.7255780727870427,0.4352294715547771,0.6718518703672878,0.719999845727818,0.7684643993009193,0.6105821901956325,0.38423874486214515,0.7609697376678835,0.729381263044278,260.0,left
0.6928448328887242,0.7509485396611169,0.5646703660043428,0.28237159941541723,0.6709007588599611,0.7129901573009736,0.428717798117221,0.6436568045038111,0.6941775749952672,0.7589342537091204,0.59389917029673,0.3676630928349258,0.7425364805801875,0.7203603930800213,261.0,left
0.7270425976603043,0.7850567886571156,0.5928543361796343,0.29148052525810986,0.7430716354306455,0.7311183664860916,0.4523642177737539,0.6635885016418097,0.7564562908337198,0.7834092316119321,0.6272643024221622,0.38287986429833154,0.7479460417449735,0.7654647429013046,262.0,left
0.7523761512921538,0.8040069614562952,0.5978858188859064,0.3052326837047801,0.800231330303351,0.7442087246682849,0.459904393650147,0.6927556196185787,0.7969623807283188,0.7901231461770983,0.6363201506011418,0.3894020770278228,0.7645761117776884,0.764173943771489,263.0,left
0.7112100311515839,0.7661066158579324,0.55762437346052,0.29862495421219304,0.7684761885913183,0.7366567424647297,0.44482534710336985,0.6898394632790819,0.7615183468192921,0.772362907746106,0.6115352462832515,0.3649453317070872,0.7553594832338408,0.7203603930800213,264.0,left
0.6662449633795582,0.7504062224201782,0.5445406016694037,0.2905873866103388,0.7661672834741218,0.7321251695983566,0.4372851712267103,0.6927556196185787,0.747847903055165,0.7725798581738426,0.6005723782562917,0.350543578099094,0.7363252909765183,0.6817002229448477,265.0,left
0.7036097238586834,0.7726041125378345,0.5737289516305957,0.2966597770963384,0.7817556914512913,0.7421951184433642,0.4551064558758515,0.7462332980617035,0.7944303885342929,0.7808099510128672,0.6158249063510226,0.364674176560289,0.7429371040266579,0.7177837028018743,266.0,left
0.7321102731985718,0.777476719537443,0.5797686476334007,0.29933919303937184,0.7667434102747954,0.7573010005704983,0.4681284975446882,0.7700532036524912,0.8217712760621598,0.7764783666190294,0.6334609823375423,0.36086972495863634,0.7587659271665892,0.7429125679906612,267.0,left
0.7131107109823063,0.7693563952193578,0.5651744726528065,0.29219476408528866,0.7586600434073603,0.7532718704006403,0.45030851810155426,0.7209525370096994,0.792405566140145,0.781243026961687,0.6401341902971023,0.3595108443948227,0.7663792988326694,0.7255162276273097,268.0,left
0.714377026859129,0.7785592919767907,0.5722204651966294,0.2911234058444503,0.7684761885913183,0.7074517813223355,0.4338590051067328,0.6874084072325974,0.7827847671647081,0.7996532917690669,0.6358436225573332,0.37826091231286796,0.7681824858874933,0.7673960336147942,269.0,left
0.706142355612819,0.7655663606595233,0.5712122519000964,0.2950523996213894,0.7725178720250341,0.6868075232165669,0.4403706785440207,0.6917835675052864,0.813164816686081,0.8003033181454544,0.6453759987801213,0.3676630928349258,0.7645761117776884,0.7648193433366473,270.0,left
0.7067767195667223,0.734163511741059,0.568697468924718,0.2941592609737578,0.7580839166066902,0.7326276122944773,0.4465390827663622,0.7024798438052731,0.8288600828439652,0.7840592579883197,0.6754054345981437,0.3540758396107453,0.7675811691717662,0.7390450785827021,271.0,left
0.72957522941444,0.7493236499804041,0.5878209367182414,0.2918376446716291,0.7476894456650349,0.7391747091057876,0.43762844044192484,0.6932425714388568,0.813164816686081,0.7758283402426418,0.6887518505172654,0.37418427062121573,0.7737927403215359,0.7622426530585003,272.0,left
0.7327422251219886,0.7753115746583177,0.5993962220753879,0.2966597770963384,0.7725178720250341,0.6918424976386799,0.4225493938948812,0.6553232813886876,0.7898735739465135,0.7784276208415379,0.6682566062671462,0.38994542226462237,0.7663792988326694,0.7777052487178722,273.0,left
0.7276769616137138,0.7504062224201782,0.5968795223444978,0.29951741263243914,0.7603928217238831,0.6852963596877704,0.40335829540069845,0.6349055581938519,0.7858220007557382,0.7749621883451718,0.6553858107194621,0.38179317382451927,0.7555601765032538,0.7822156837000023,274.0,left
0.708043035443545,0.734705828982424,0.5848020470947937,0.2963026576826797,0.7182454080276734,0.700402241814901,0.40061670990160714,0.6562953335019781,0.7974676221257173,0.771929831797455,0.6663486787467932,0.3703808539627662,0.7593664807901153,0.7648193433366473,275.0,left
0.7086773993974447,0.7698966504177704,0.5802727542814701,0.29862495421219304,0.7424933096724935,0.6868075232165669,0.4239198603429255,0.6864363551193051,0.8303796638407182,0.7886069679032408,0.6773115467737529,0.3720108896735912,0.7687838026032203,0.7738402133009039,276.0,left
0.7352748568761243,0.7877642507771796,0.5888272332596536,0.3030899672232428,0.7788684605759464,0.6888211294414877,0.4290610673324373,0.6840052990728207,0.8592401323653345,0.8065841567619696,0.6777889824903056,0.38179317382451927,0.7647768050471022,0.7905936080900915,277.0,left
0.7416088482917083,0.7758538918992599,0.595371035910528,0.30237504816867933,0.7563511382901673,0.7129901573009736,0.41261155433734764,0.6869233069399634,0.861264954759486,0.8031187242654338,0.681601206841524,0.3845109349523579,0.7641754883313752,0.7770623031437083,278.0,left
0.7428751641690248,0.780184181657507,0.595371035910528,0.2979100351576287,0.7644345051576025,0.7260824332035778,0.42631882923007325,0.7258146491030466,0.8627845357562389,0.7948886314264092,0.6954250584768271,0.3932065286294737,0.7862151195288751,0.8034795134718209,279.0,left
0.7504754714614315,0.7899293956563014,0.5958732258034765,0.2977318155645614,0.8088908239714563,0.7416907580268326,0.45030851810155426,0.7540115664945475,0.8820261337075035,0.7994371662479836,0.697808606368989,0.4035321580172031,0.8030451197386475,0.8060562037499679,280.0,left
0.7644073581394295,0.7828916437779903,0.6054359180778022,0.2996963124530305,0.7609689485245568,0.7311183664860916,0.4365999380028214,0.7369960256956674,0.8658217693476598,0.8042018265906412,0.6868457383416562,0.39701098023112635,0.780204241648363,0.7886598633861119,281.0,left
0.7618747263852903,0.7704389676587091,0.6034233249953687,0.29737469615090273,0.7130492720351356,0.6908356945264149,0.4283758341082802,0.7141463206901477,0.8364560594256449,0.7940224795289392,0.681601206841524,0.3872286960801983,0.7832092990424409,0.7963923882115438,282.0,left
0.7447758439997472,0.7720638573394218,0.5878209367182414,0.2963026576826797,0.7673217360329474,0.6943604642801322,0.44345488065532557,0.7160922764443765,0.8526584953834071,0.7879577664335065,0.6820786425577055,0.38423874486214515,0.7830093688653843,0.7860831731079649,283.0,left
0.7473084757538864,0.7758538918992599,0.5878209367182414,0.2989820736258517,0.7794467863340948,0.7341387758232738,0.4393421761049172,0.7092860601248248,0.8481016807952297,0.7983540639227762,0.6801725303820962,0.3858698155161715,0.6307350677149159,0.7931702983682385,284.0,left
0.7447758439997472,0.773686684977605,0.5963773324515458,0.299160293218919,0.7448044137471683,0.7472310517258816,0.43317377188257744,0.6898394632790819,0.8202536234678863,0.8013864204704921,0.6801725303820962,0.379076447639882,0.5065116571884056,0.7873715182472907,285.0,left
0.7384418525841632,0.7807264988988685,0.6024151116988392,0.2959455382691596,0.7765595554587499,0.7341387758232738,0.4465390827663622,0.6888674111661679,0.8359488896257705,0.7946716809986727,0.6906579626928746,0.37309758014740346,0.6391504493659799,0.7828610832651606,286.0,left
0.7479428397072958,0.7872219335362374,0.5978858188859064,0.2957673186760923,0.81177805484635,0.7426994788595049,0.45750542476299927,0.7194953846041532,0.8703805123379187,0.8003033181454544,0.6959006788482647,0.38396758971534517,0.7982368752897449,0.810566638732098,287.0,left
0.7561750989236096,0.7796418644165648,0.5968795223444978,0.2966597770963384,0.7684761885913183,0.7457198881970815,0.4523642177737539,0.7413711859683563,0.8693661727385642,0.8096165133096855,0.6868457383416562,0.38804319646379604,0.7806048650948325,0.8099236931579306,288.0,left
0.7682087178008778,0.7769364643390304,0.6175133933278971,0.29826715457114883,0.7500005497392586,0.7225576634498605,0.4472243159905176,0.7262997493956806,0.854683317777555,0.8003033181454544,0.6882744148010858,0.38396758971534517,0.7505504756925809,0.8150770737142246,289.0,left
0.7555407349697063,0.777476719537443,0.6175133933278971,0.299160293218919,0.7834862708103323,0.7104721906599121,0.4324885386586885,0.7029649440979071,0.8405057042139443,0.7825430797144621,0.6901805269766932,0.37853206745966794,0.7810054885411466,0.7970353337857112,290.0,left
0.7219773341520295,0.7747692574169562,0.6009066252648694,0.2968386769167912,0.7719395462673333,0.7225576634498605,0.420493694222948,0.6932425714388568,0.8313920750379911,0.7853584858344416,0.6796950946659148,0.36956531863575215,0.7794029947555794,0.7693297783187774,291.0,left
0.7276769616137138,0.7785592919767907,0.6074485111602321,0.2966597770963384,0.7476894456650349,0.7437062819721643,0.4307748029954279,0.6956736274857214,0.8577205513685815,0.8068011071895373,0.6820786425577055,0.36956531863575215,0.7675811691717662,0.7847948279691401,292.0,left
0.7333765890758883,0.7834318989764029,0.6019129218058907,0.29826715457114883,0.7840645965684843,0.7351455789359331,0.4290610673324373,0.6883804593455096,0.8572153099711866,0.8068011071895373,0.6715913949021832,0.37255423491039075,0.7677818624411801,0.7738402133009039,293.0,left
0.714377026859129,0.7698966504177704,0.5858083436358115,0.2959455382691596,0.7927240902365895,0.7029202084563533,0.4139820207853919,0.6825481466668943,0.8278476716470866,0.7946716809986727,0.6482369823884628,0.366033057124314,0.7655780519398858,0.7583751636505376,294.0,left
0.6947431006889602,0.7644837882197493,0.5853042369877421,0.2939810413806905,0.7476894456650349,0.6852963596877704,0.40678576672695144,0.676713982460635,0.814684397682834,0.7925063012550808,0.6658730583753556,0.3540758396107453,0.7669806155483965,0.7377567334438773,295.0,left
0.7200766543213071,0.7915542853370141,0.6064422146192108,0.29987521227348335,0.7494222239815578,0.7039270115686183,0.41843734194774385,0.6708798182539955,0.8111399942919295,0.7873077400571189,0.6992372828280455,0.36277195075946267,0.7683831791569071,0.7306696081836037,296.0,left
0.7587077306777452,0.7964268923366227,0.6190237965173786,0.3038042060504216,0.7875279542440481,0.7200396968084082,0.435914704778666,0.6650456540477361,0.8086080020979036,0.7756122147215585,0.6758828703146964,0.37391311547441575,0.7693843562267473,0.7570868185112118,297.0,left
0.734642904952711,0.7726041125378345,0.5958732258034765,0.29737469615090273,0.7673217360329474,0.705940617793539,0.4324885386586885,0.6742829264137722,0.8167092200769819,0.7831922811841956,0.6391802265371123,0.3535324943737326,0.767180545725453,0.7493542936862809,298.0,left
0.7169096586132646,0.7720638573394218,0.5802727542814701,0.2939810413806905,0.7511550022980806,0.6878143263288283,0.42117892744683694,0.6898394632790819,0.834936478428892,0.8390731019827227,0.6482369823884628,0.3464674538790433,0.7641754883313752,0.7448463126946443,299.0,left
0.7194422903674038,0.7747692574169562,0.58429794044633,0.29737469615090273,0.7725178720250341,0.6696870760041111,0.4187799585596874,0.656782285322258,0.8268352604498137,0.9049163194153849,0.6434698866045121,0.3486413522982694,0.7541576128947431,0.7306696081836037,300.0,left
0.7276769616137138,0.7634012157804015,0.5853042369877421,0.29880317380526034,0.7661672834741218,0.6923458991952014,0.42494836278202897,0.6378217145333505,0.8136700580834759,0.9179118975037195,0.6115352462832515,0.33451075383728757,0.7413342286948339,0.711984922680923,301.0,left
0.758075778754332,0.7785592919767907,0.5948669292620643,0.30005343186655065,0.7615472742827052,0.7391747091057876,0.43488750754583627,0.6791450385071194,0.8324044862348661,0.896903177003928,0.6396567545809226,0.34619578126064354,0.7495492986227408,0.7551555277982267,302.0,left
0.7523761512921538,0.7904717128976628,0.5903376364491351,0.30255394798913127,0.7615472742827052,0.7447130850844257,0.4410559117681778,0.6976177317119259,0.8607597133620875,0.8988524312264365,0.6920884544970463,0.36657640236111355,0.7595671740593728,0.7673960336147942,303.0,left
0.7397081684609859,0.7742290022185472,0.5853042369877421,0.30237504816867933,0.7638561793999017,0.7220533030333254,0.43694320721776947,0.6844922508931006,0.8617721245593604,0.9135803131097129,0.6782646028617432,0.36440198647028765,0.7519530393010916,0.748711348112117,304.0,left
0.7321102731985718,0.7731464297791959,0.5898335298006749,0.29862495421219304,0.7794467863340948,0.7094653875472563,0.432145269443474,0.6878953590528756,0.8288600828439652,0.9131472371610627,0.6401341902971023,0.3524458038999203,0.7445399793583247,0.7229370833581683,305.0,left
0.7036097238586834,0.7455336154205696,0.5641681761113944,0.28790865089469087,0.7361427211215847,0.684289556575111,0.43111676700436874,0.6660177061606483,0.7984800333225959,0.9023178637229732,0.6239276984423832,0.3380435328203273,0.7399316650863232,0.679768932231859,306.0,left
0.7023434079818607,0.7054681249430814,0.5410176053974922,0.2825504992360095,0.6789841257273963,0.6711982395329077,0.43111676700436874,0.6378217145333505,0.812657646886203,0.8995016326963396,0.6234511703982015,0.33750018758352596,0.7397313533631662,0.7003873624385193,307.0,left
0.7181759744905811,0.7319983668619372,0.5596369665429499,0.28826577030834954,0.7101620411602418,0.7099697479637879,0.4318020002285259,0.6718518703672878,0.8556957289744336,0.9148795409560035,0.6334609823375423,0.345924108642242,0.7481463534681305,0.7248708280621479,308.0,left
0.7219773341520295,0.7628588985390365,0.58429794044633,0.28701551224705923,0.7678978628336175,0.7245712696747812,0.4307748029954279,0.6932425714388568,0.8602525435626074,0.916395719229862,0.6372741143615048,0.34701079911605426,0.7505504756925809,0.71456161295907,309.0,left
0.7327422251219886,0.7569037191000767,0.58631053352876,0.28433609630388723,0.7557728125324665,0.7150056812463017,0.43762844044192484,0.6903264150997401,0.8455696886016018,0.9094648542369592,0.6506205302806247,0.3453802459336295,0.7531556727325466,0.724225428497494,310.0,left
0.7409744843383024,0.7493236499804041,0.5742330582790593,0.29201654449222136,0.7488460971808841,0.7275935967323743,0.45544841988479057,0.7209525370096994,0.8663289391471398,0.920728128530353,0.6806481507535338,0.3494563701536819,0.765978675386199,0.7429125679906612,311.0,left
0.7428751641690248,0.7536539397386512,0.5737289516305957,0.2946952802078693,0.7742484513845262,0.7406839549145676,0.46024635765908783,0.7457463462414253,0.9017729730561665,0.9354560104136294,0.6916110187808648,0.35652192812018413,0.7647768050471022,0.7648193433366473,312.0,left
0.7384418525841632,0.7482410775410528,0.5802727542814701,0.28362185747670754,0.7540422331729744,0.7371591851608503,0.45373598942780546,0.7418562862609903,0.9194930616085966,0.9348059840372418,0.6939945666726555,0.36086972495863634,0.7399316650863232,0.7493542936862809,313.0,left
0.7390762165375726,0.7401186911800188,0.5873168300701721,0.2795139638793165,0.7309465851294945,0.7391747091057876,0.45887589121104355,0.7549836186074614,0.9235446347989775,0.9330736802423001,0.709724530483939,0.3706520091095644,0.7263070339937858,0.7545101282330648,314.0,left
0.7314759092451659,0.7449912981796274,0.5787623510919886,0.2913016254375176,0.7372971736804068,0.7442087246682849,0.45750542476299927,0.7715122075860616,0.9402523121541382,0.9371883142085702,0.6949476227606457,0.36956531863575215,0.7299137896496912,0.7699751778834312,315.0,left
0.7226092860754427,0.7579862915398508,0.5747352481720078,0.30005343186655065,0.7627017268410796,0.7255780727870427,0.4420831090010058,0.7520656107403187,0.9367079087632337,0.9296082477457643,0.669685282726574,0.34918469753528036,0.7168900937267813,0.7190720479412,316.0,left
0.7169096586132646,0.7536539397386512,0.5782582444439193,0.2923736639057406,0.7730939988257042,0.6948638658362629,0.435914704778666,0.7190084327834949,0.8886077706898288,0.922027356376474,0.6782646028617432,0.3437502102228045,0.7080744701755037,0.7029640527166663,317.0,left
0.679544898134143,0.7097994457225951,0.5530950806475907,0.2777283668113002,0.7459588663055392,0.6787511805964765,0.4407126425529615,0.6927556196185787,0.8820261337075035,0.9259258648216608,0.6782646028617432,0.34701079911605426,0.7383287897546555,0.7152070125237273,318.0,left
0.6738452706719649,0.7005955179438956,0.5465531947518336,0.27451293163415524,0.733255490246691,0.7104721906599121,0.45167898454959854,0.6903264150997401,0.9048102066475874,0.9291751717971133,0.669685282726574,0.34266300227739066,0.7541576128947431,0.717138303237217,319.0,left
0.7213429701981262,0.7412012636197929,0.5747352481720078,0.283086518470121,0.7436499611883463,0.7366567424647297,0.4506504821104951,0.7083140080115324,0.882531375104902,0.9231104587016814,0.6773115467737529,0.34402188284141744,0.7355236625376342,0.729381263044278,320.0,left
0.7390762165375726,0.7726041125378345,0.5868146401772236,0.2939810413806905,0.7586600434073603,0.7270892363158392,0.43797170965687293,0.7243556451694761,0.8830385449047764,0.9280920694719068,0.682554262929143,0.3502719054806942,0.7667799222789826,0.7235824829233266,321.0,left
0.7422432122456115,0.7796418644165648,0.5948669292620643,0.29826715457114883,0.7523094548564515,0.7386703486896504,0.44619581355141413,0.7326208654226001,0.925569457193129,0.9391383933377329,0.6882744148010858,0.3635864511432736,0.7469444831288765,0.7467776034081339,322.0,left
0.7504754714614315,0.7747692574169562,0.5999003287234572,0.2948741800283212,0.7615472742827052,0.752769427704516,0.46298859576145013,0.7369960256956674,0.9316458527780558,0.9267920167191317,0.6949476227606457,0.3676630928349258,0.5622116703517062,0.7764169035790509,323.0,left
0.7466765238304731,0.7709792228571182,0.5878209367182414,0.2905873866103388,0.8036946879789149,0.7426994788595049,0.45750542476299927,0.743802242015219,0.9169610694145707,0.9170457456062495,0.6563388668074523,0.35163026857290625,0.4770585845018811,0.756443872937048,324.0,left
0.7340085409993016,0.759068863979202,0.5848020470947937,0.28237159941541723,0.8158197382800658,0.7643505400779329,0.46333055977039095,0.7593587788805287,0.9174682392144451,0.9265758911980484,0.607722114259662,0.3364129796381139,0.6347424468171345,0.7152070125237273,325.0,left
0.7403425324148891,0.7547385742209549,0.5903376364491351,0.2780854862249589,0.8008074571040211,0.8116817926850342,0.4952023885272059,0.7846376884045085,0.9281014493871549,0.9272250926679515,0.6306009064019431,0.33750018758352596,0.767180545725453,0.7010303080126867,326.0,left
0.7663080379701519,0.7796418644165648,0.6034233249953687,0.28844398990141684,0.8135108331628729,0.8101706291562376,0.5061687305238429,0.7967911171100415,0.9635435548937021,0.9285251454207266,0.6873213587130937,0.36413083132348767,0.7645761117776884,0.7609543079191745,327.0,left
0.758075778754332,0.8007571820948698,0.6074485111602321,0.2964815575032711,0.8475748799920986,0.7854972408802166,0.49280341964005814,0.802625281316681,0.9994928302001238,0.9493177403994348,0.7230691310579456,0.3823365190613188,0.7677818624411801,0.7951040430722216,328.0,left
0.7409744843383024,0.7915542853370141,0.5963773324515458,0.2946952802078693,0.8065819188542598,0.7734136858102847,0.48389277731562075,0.7992221731569042,0.9924059518207979,0.9592809619400535,0.7254526789501075,0.3673909027449245,0.7858144960824056,0.7628855986326677,329.0,left
0.7479428397072958,0.7942617474575009,0.5928543361796343,0.29755291574397,0.762125600040406,0.7437062819721643,0.47909483954132526,0.7690811515391989,0.9736715236690134,0.9478015621255764,0.7125836987471654,0.3510869233361067,0.7725908699824391,0.7570868185112118,330.0,left
0.7403425324148891,0.8213322445747657,0.5903376364491351,0.30201792875501976,0.8135108331628729,0.7416907580268326,0.46572952865754047,0.7442873423078531,0.9620259022994286,0.9374052646361379,0.7240240024906779,0.3538041669923455,0.7689837327802769,0.7583751636505376,331.0,left
0.7530081032155707,0.830537203375151,0.6029192183472993,0.30023233168714203,0.8620088354104425,0.7900307314666097,0.45853262199609546,0.7423432380816486,0.9473411189359435,0.9356721359347127,0.7564351708557489,0.3709241991997789,0.780404934917776,0.7725518681615782,332.0,left
0.7593420946311547,0.8202496721349917,0.6064422146192108,0.29987521227348335,0.8302536936984097,0.803121089648803,0.4578473887719401,0.744774294128133,0.9453162965417921,0.9419537994577123,0.7545290586801396,0.3744564607112171,0.780204241648363,0.7570868185112118,333.0,left
0.7327422251219886,0.8240397066948297,0.5928543361796343,0.30326818681631007,0.7817556914512913,0.7638461796617921,0.4544212226519626,0.7311618614890278,0.947848288735818,0.9441191792014729,0.7407052070448366,0.35978303448482407,0.771388236550985,0.726804572766131,334.0,left
0.7435095281224342,0.8375749552534622,0.5983899255339757,0.30326818681631007,0.7956113211114832,0.7447130850844257,0.4544212226519626,0.710743212530371,0.9382274897599867,0.9361060367900169,0.7445192467407988,0.35788080868399774,0.7689837327802769,0.7532217830942436,335.0,left
0.7625090903391936,0.8321600310129114,0.6009066252648694,0.30237504816867933,0.7886846057599008,0.748237854838143,0.45339272021285915,0.6874084072325974,0.9194930616085966,0.9317736274895259,0.7135367548351574,0.3567930832669841,0.771388236550985,0.7306696081836037,336.0,left
0.7473084757538864,0.798592037215748,0.5853042369877421,0.29933919303937184,0.7453805405478384,0.7371591851608503,0.45373598942780546,0.6801170906204117,0.8951894076717597,0.9298243732668476,0.6763584906861357,0.3388585506757398,0.7657779821169424,0.6881444026309573,337.0,left
0.6985444603504085,0.7634012157804015,0.5510824875651572,0.2930879027329194,0.7736723245838562,0.7306140060695565,0.45202225376481486,0.6840052990728207,0.8764549795203695,0.9261428152493973,0.6763584906861357,0.32282624388553316,0.7593664807901153,0.6759014428238963,338.0,left
0.6548445024402056,0.7639414709788106,0.5198796277660236,0.2916594250785618,0.7852190491268551,0.7361523820481946,0.4424263782162221,0.6631015498215316,0.8799993829112704,0.9202942276750488,0.6830316986456957,0.3173912391014557,0.7625722314534507,0.6591505020251986,339.0,left
0.6624448097331062,0.767191250340236,0.5228985173898657,0.2957673186760923,0.7563511382901673,0.740181512218447,0.4424263782162221,0.656782285322258,0.9108866022321198,0.9150964913835713,0.6877987944296482,0.31711956648305595,0.7689837327802769,0.6694597171282766,340.0,left
0.6681444371947904,0.7655663606595233,0.5450427915623557,0.29862495421219304,0.7944568685531124,0.7341387758232738,0.44551058032725877,0.6752549785270645,0.9291138605840299,0.9181288479312872,0.6844621904498673,0.3154890133006294,0.7639747950619613,0.6713910078417697,341.0,left
0.6808112140109621,0.7828916437779903,0.55561178037809,0.3004105512802102,0.8331409245737547,0.7356499393520739,0.4424263782162221,0.6820611948466162,0.9235446347989775,0.9291751717971133,0.6796950946659148,0.324456279596145,0.7505504756925809,0.6829885680841734,342.0,left
0.7036097238586834,0.7991343544566867,0.5616514763808951,0.3016608093415005,0.774826777142227,0.7371591851608503,0.43694320721776947,0.6747698782344305,0.924049876196376,0.9339398321397709,0.7082940386797674,0.33913022329413955,0.7441393559118552,0.7055407429948133,343.0,left
0.706142355612819,0.7964268923366227,0.5802727542814701,0.29862495421219304,0.7407627303134525,0.7326276122944773,0.44962328487766534,0.6796301387997534,0.9326582639749343,0.931340551540706,0.7430887549366272,0.34048910385816455,0.7477457300216601,0.7061861425594707,344.0,left
0.7162752946598587,0.7872219335362374,0.58429794044633,0.2989820736258517,0.790415185119393,0.7421951184433642,0.4763539066452367,0.6893543629864478,0.9275942795872805,0.9328567298145636,0.7173507945311179,0.33967408600275206,0.7479460417449735,0.7338916980264045,345.0,left
0.734642904952711,0.7931791750177268,0.5717163585481657,0.29933919303937184,0.7892607325605709,0.7487402975342672,0.4804666111953768,0.6825481466668943,0.9169610694145707,0.9285251454207266,0.6796950946659148,0.3415757943319768,0.7521537325705054,0.7300266626094363,346.0,left
0.7321102731985718,0.7715215400984832,0.5671870657352365,0.2811213413541269,0.7448044137471683,0.740181512218447,0.4712126996557249,0.6864363551193051,0.9210126426053495,0.9122810852635919,0.6796950946659148,0.34293467489579044,0.7513524856777218,0.709408232402776,347.0,left
0.7175440225671679,0.7444510429812183,0.5717163585481657,0.27683522816366857,0.7713634194666632,0.733634415407133,0.4626453265462356,0.6942146235521491,0.9200002314080766,0.9064324976892424,0.6854152465374863,0.345924108642242,0.7365256026998308,0.7396904781478604,348.0,left
0.7213429701981262,0.7964268923366227,0.5757434614685408,0.30666184158666177,0.8412242914411863,0.7406839549145676,0.459904393650147,0.6908115153923742,0.9260766269930034,0.9146634154349202,0.6734993224225345,0.345924108642242,0.7637748648849048,0.7384021330085346,349.0,left
0.7447758439997472,0.7780190367783817,0.5671870657352365,0.2700479186231055,0.8233247793898002,0.7477334944220022,0.4660727978724868,0.6874084072325974,0.7129110389460127,0.7513537747930723,0.689227470888703,0.4032610028704031,0.7717888599972982,0.7577322180763737,1.0,right
0.7238756019522654,0.7698966504177704,0.5470553846447856,0.2605822134805855,0.814086959963543,0.7361523820481946,0.43968414011385804,0.6528922253422031,0.6906331716043663,0.744206371825844,0.6777889824903056,0.3915764929186505,0.7661786055632556,0.7087628328376177,2.0,right
0.7264082337064011,0.7720638573394218,0.5561158870265501,0.2666549440802779,0.7857973748850071,0.7311183664860916,0.4410559117681778,0.6908115153923742,0.7250638301154719,0.7452890616976395,0.7087696590512049,0.40597772905504037,0.7872170596909163,0.7332462984617507,3.0,right
0.7561750989236096,0.7969692095775649,0.5893313399077229,0.28433609630388723,0.7892607325605709,0.7421951184433642,0.4492800156624508,0.7238705448768421,0.764557508812798,0.7669482210270617,0.752145510788349,0.43831556766908086,0.8068521871178653,0.8099236931579306,4.0,right
0.7321102731985718,0.8337849206936241,0.5873168300701721,0.29076628643093017,0.8048491405377369,0.7381659882731153,0.43488750754583627,0.6878953590528756,0.7301258861006499,0.7656489931809398,0.7273587911257167,0.4293477839017523,0.7952310548033097,0.7673960336147942,5.0,right
0.6896778371806853,0.8180845272558699,0.5515846774581092,0.2811213413541269,0.7852190491268551,0.7321251695983566,0.4338590051067328,0.6494891171824264,0.677974174836466,0.7340266123107302,0.6758828703146964,0.3934776837762737,0.7711883063739284,0.7010303080126867,6.0,right
0.6801768500575562,0.7698966504177704,0.5390030955599414,0.2752278506887187,0.7759812297010491,0.7432019215556291,0.4458538495424733,0.6543512292757736,0.6703791624562232,0.7260126449927897,0.6692096623551365,0.374999805948228,0.7587659271665892,0.670102662702444,7.0,right
0.6801768500575562,0.767191250340236,0.5470553846447856,0.2786208252315463,0.7834862708103323,0.7447130850844257,0.44551058032725877,0.6660177061606483,0.7022778287733065,0.7418236292011038,0.6811255864700865,0.36820643807193854,0.7627729247228645,0.6752584972497324,8.0,right
0.6839782097190046,0.776394147097669,0.5344738027466178,0.2795139638793165,0.7823318182519614,0.7351455789359331,0.4403706785440207,0.6587263895484625,0.7326578782946758,0.7494045205703941,0.6968537349362549,0.38478209009915787,0.7773991144313417,0.7300266626094363,9.0,right
0.6928448328887242,0.756361401859138,0.5103169354917014,0.2655829056120549,0.7852190491268551,0.7356499393520739,0.44174114499206496,0.6509481211159986,0.7291134749037749,0.7500541344935394,0.7230691310579456,0.4122277516943189,0.7852131793666786,0.7499996932509383,10.0,right
0.7175440225671679,0.755821146660729,0.5334675062056,0.25772457794434533,0.7788684605759464,0.7432019215556291,0.4492800156624508,0.6708798182539955,0.7286082335063764,0.7548187948361971,0.7454723028287891,0.4247277969730874,0.7908234338007212,0.756443872937048,11.0,right
0.7181759744905811,0.7720638573394218,0.5601410731914136,0.27147707650484776,0.7528877806146035,0.7552873943455776,0.4557916891000069,0.698589783824838,0.747340733255685,0.7582842273327328,0.7435661906531799,0.42255441602546107,0.7948304313569965,0.7557984733723906,12.0,right
0.7124763470284066,0.7769364643390304,0.5480616811861978,0.276478108750009,0.7476894456650349,0.7567966401543575,0.4592191604262581,0.6942146235521491,0.747847903055165,0.7459390880740271,0.7073409825917771,0.4043476933442154,0.7800035483791055,0.7287358634796206,13.0,right
0.7314759092451659,0.776394147097669,0.5425260918318529,0.26969079920944594,0.7511550022980806,0.7578034432666225,0.4564769223238958,0.6917835675052864,0.7387342738792082,0.7398743749785952,0.6744523785105265,0.3850542801891592,0.761770984560667,0.7113395231157646,14.0,right
0.7314759092451659,0.7807264988988685,0.5495720843756757,0.27379869280697644,0.7719395462673333,0.7603214099080748,0.4592191604262581,0.7219245891229917,0.7589863546252698,0.7537365174176429,0.6773115467737529,0.37418427062121573,0.7683831791569071,0.6829885680841734,15.0,right
0.7276769616137138,0.777476719537443,0.5505783809166971,0.2752278506887187,0.790415185119393,0.7452155277805499,0.46298859576145013,0.7214394888303577,0.7594935244251442,0.754385718887546,0.6773115467737529,0.37527199603822936,0.7788016780398523,0.682345622510006,16.0,right
0.699810776227725,0.7623165812980979,0.5299445099336886,0.2671902830868653,0.7476894456650349,0.7432019215556291,0.452707486988702,0.6742829264137722,0.7311382972979228,0.7433398074749622,0.6615833983075845,0.37391311547441575,0.7723901767130252,0.6920094380484301,17.0,right
0.6725789547951422,0.7634012157804015,0.5274278102027949,0.27219131533202656,0.7251721233792559,0.7839879950714366,0.4506504821104951,0.6776860345735489,0.7367094514850567,0.7550357452639336,0.6725462663349173,0.38179317382451927,0.7765978675385581,0.6952315278912344,18.0,right
0.7074110835201317,0.7915542853370141,0.5601410731914136,0.28612237359928905,0.7730939988257042,0.8091638260435818,0.46401579299427986,0.7185214809632168,0.7686071536010974,0.7803768750642162,0.6954250584768271,0.40570657390824216,0.7932279375714293,0.7306696081836037,19.0,right
0.7213429701981262,0.8072546787747683,0.5581284801089801,0.28862288972186967,0.7898390583187229,0.7734136858102847,0.4609315908832432,0.7126891682846015,0.7640503390129236,0.7678143729245317,0.6916110187808648,0.40081543183277724,0.7832092990424409,0.729381263044278,20.0,right
0.7150089787825422,0.797509464775974,0.5505783809166971,0.2791568444656578,0.7453805405478384,0.748237854838143,0.4485947824385619,0.6883804593455096,0.7387342738792082,0.7422567051499236,0.6839847547333147,0.3861409706629715,0.7699856729424743,0.7126278682550904,21.0,right
0.7327422251219886,0.8061721063354206,0.5767497580095586,0.2777283668113002,0.7609689485245568,0.7754272920352054,0.4684717667596363,0.7029649440979071,0.7362022816855767,0.7539526429387262,0.6887518505172654,0.39728213537792456,0.7840113090275809,0.7139162133939116,22.0,right
0.7485747916307091,0.8321600310129114,0.5963773324515458,0.29273078331940017,0.8394915131246634,0.776938455564002,0.48252231086757646,0.7170643285572904,0.7427839186675076,0.7771283929954169,0.7040043786119963,0.41086990607370666,0.7962329949655071,0.7287358634796206,23.0,right
0.7504754714614315,0.8397401001325839,0.5858083436358115,0.30612582235255026,0.8314081462572318,0.7512582641757195,0.46024635765908783,0.698589783824838,0.7407590962733597,0.774529112396352,0.7063879265041582,0.41249994178453164,0.7896208003692671,0.7654647429013046,24.0,right
0.7169096586132646,0.8180845272558699,0.5505783809166971,0.2989820736258517,0.7609689485245568,0.768882112944306,0.44551058032725877,0.6801170906204117,0.7458230806610135,0.7628327621543072,0.6734993224225345,0.3991843611787509,0.7796029249326359,0.7345370975915664,25.0,right
0.6991764122738218,0.7807264988988685,0.5334675062056,0.2782637058180262,0.7580839166066902,0.8011074834238823,0.46161812931340584,0.6937295232595151,0.7407590962733597,0.747238315920149,0.6258347182903634,0.3815220186777193,0.7661786055632556,0.6965198730305566,26.0,right
0.7137426629057195,0.7606937536599148,0.5500761910237486,0.26093933289410565,0.800231330303351,0.8021142865361472,0.47875287553238444,0.7209525370096994,0.7134182087454928,0.7283949751641181,0.6048620383236898,0.373640925384203,0.751151792408308,0.7048977974206494,27.0,right
0.7232436500288522,0.7704389676587091,0.5732267617376472,0.26093933289410565,0.7765595554587499,0.8162133655510164,0.49280341964005814,0.7467183983543375,0.728101063706502,0.7455055996719651,0.6396567545809226,0.38423874486214515,0.7569627401117645,0.7081174332729603,28.0,right
0.734642904952711,0.7791016092181557,0.5787623510919886,0.27272733456613807,0.7315249108871953,0.8162133655510164,0.5013707927495457,0.7613028831067332,0.7746835491856299,0.7803768750642162,0.6849378108213049,0.4046198834344299,0.7814061119876161,0.7345370975915664,29.0,right
0.7207086062447203,0.7650240434181583,0.5606451798394829,0.27576318969544555,0.7551966857317964,0.7648529827740536,0.47669587065417574,0.7433152901945608,0.7615183468192921,0.7779945448928878,0.693517130956474,0.3975543254679259,0.7906227405314645,0.7384021330085346,30.0,right
0.7074110835201317,0.7650240434181583,0.5485657878342671,0.2754060702817869,0.7667434102747954,0.7376635455769911,0.45373598942780546,0.7262997493956806,0.7372146928824552,0.7604504319829779,0.6787420385779246,0.38396758971534517,0.7798036182020489,0.7203603930800213,31.0,right
0.6991764122738218,0.777476719537443,0.5379967990185293,0.276478108750009,0.7419171828718234,0.7386703486896504,0.4523642177737539,0.6976177317119259,0.7397466850764811,0.7509206988442525,0.6625364543955765,0.38777204131699783,0.7691844260496907,0.7126278682550904,32.0,right
0.6808112140109621,0.7688140779779964,0.5319571030161185,0.2700479186231055,0.7436499611883463,0.7301096456534157,0.4393421761049172,0.656782285322258,0.7189874345305451,0.7420401671755981,0.6520492067396813,0.3834242444785456,0.7695850494960039,0.6958769274563927,33.0,right
0.699810776227725,0.7525713672993,0.5430301984799222,0.2595105151260553,0.7615472742827052,0.7326276122944773,0.4280325648933321,0.6582394377281844,0.6891135906076133,0.7398743749785952,0.6334609823375423,0.3779887222228666,0.7697857427654178,0.7087628328376177,34.0,right
0.708043035443545,0.7536539397386512,0.5339716128536693,0.25504550211500465,0.7609689485245568,0.733634415407133,0.43968414011385804,0.6728239224802017,0.6855691872167125,0.7507037484166847,0.6110587182394411,0.37635868651204163,0.7641754883313752,0.6984536177345397,35.0,right
0.7105756671976806,0.7758538918992599,0.5425260918318529,0.267012063493798,0.7603928217238831,0.733634415407133,0.44996524888660616,0.6752549785270645,0.7048098209669345,0.7654320427532033,0.6348905664693429,0.3820653639145206,0.7685831093339637,0.6952315278912344,36.0,right
0.7327422251219886,0.7915542853370141,0.5671870657352365,0.2807642219406077,0.7627017268410796,0.7321251695983566,0.4427683422251629,0.6806021909130457,0.7179750233336666,0.7671651714547982,0.6754054345981437,0.3888587317908101,0.776197244092244,0.7306696081836037,37.0,right
0.7359092208300275,0.7818090713382198,0.5581284801089801,0.2780854862249589,0.762125600040406,0.7321251695983566,0.4393421761049172,0.6786580866868395,0.6992405951818821,0.7550357452639336,0.6677791705509648,0.38831538655401054,0.775996550822831,0.7210057926451796,38.0,right
0.7416088482917083,0.7709792228571182,0.5646703660043428,0.27094105727073625,0.762125600040406,0.7613282130203363,0.44688104677530305,0.6718518703672878,0.6956961917909812,0.7500541344935394,0.6401341902971023,0.39782651555813864,0.7773991144313417,0.7313150077482575,39.0,right
0.7321102731985718,0.7720638573394218,0.5752393548200772,0.27219131533202656,0.7586600434073603,0.7940579439164477,0.4664147618814276,0.705882951965048,0.7382271040797281,0.7459390880740271,0.6391802265371123,0.39945655126875224,0.7717888599972982,0.7371137878697134,40.0,right
0.7105756671976806,0.7704389676587091,0.5571221835675715,0.27290555415920537,0.790415185119393,0.7940579439164477,0.48937594831380515,0.7403991338554441,0.7513923064460659,0.7444229098001696,0.657769358611624,0.3866843158999824,0.7627729247228645,0.7152070125237273,41.0,right
0.7276769616137138,0.7742290022185472,0.5702059553586842,0.27683522816366857,0.8262120102646939,0.7905331741627304,0.49108968397706576,0.7442873423078531,0.7427839186675076,0.7654320427532033,0.6835091343618771,0.39402206395648776,0.7753952341071031,0.7338916980264045,42.0,right
0.7637754062160163,0.7893891404578923,0.5958732258034765,0.27504895086826675,0.7915696376777674,0.7910375345788712,0.48423604653056884,0.7734563118122679,0.7893664041466391,0.7849254098857905,0.7001903389160358,0.4157610481491716,0.7942291146412694,0.7519334379549178,43.0,right
0.7770753409705975,0.7758538918992599,0.5817812407158307,0.2555811812354243,0.7367210468797367,0.7668685067193852,0.49074641476184944,0.7822066323580241,0.8045564289075227,0.7671651714547982,0.6906579626928746,0.4209233453714347,0.7910233639777777,0.7725518681615782,44.0,right
0.7523761512921538,0.7536539397386512,0.568697468924718,0.25754601823758616,0.7523094548564515,0.7442087246682849,0.4811518444195322,0.7389401299218719,0.7549367098369704,0.7541695933664627,0.6768359264023154,0.414402167585358,0.7800035483791055,0.7719064685969244,45.0,right
0.7587077306777452,0.79480200265591,0.5988921154269278,0.28969424796270804,0.7886846057599008,0.7487402975342672,0.45819065798715464,0.723383593056564,0.7336702894915543,0.7686813497286558,0.6777889824903056,0.42119553546164745,0.7775998077007547,0.7738402133009039,46.0,right
0.806839794157316,0.8489450589329692,0.6255656824127378,0.30326818681631007,0.7771356822594235,0.7477334944220022,0.4605896268743024,0.7394270817421518,0.7529118874428189,0.7686813497286558,0.6725462663349173,0.43152116484937686,0.776197244092244,0.8073445488887891,47.0,right
0.7834069203561889,0.8456952795715438,0.6049318114297328,0.30255394798913127,0.7627017268410796,0.7316208091822158,0.4561336531089477,0.705882951965048,0.7367094514850567,0.7435563454494565,0.6234511703982015,0.41412997749514524,0.7649767352241588,0.7654647429013046,48.0,right
0.7264082337064011,0.8272874240137256,0.5853042369877421,0.31594898702228225,0.7857973748850071,0.724068826978657,0.428717798117221,0.6494891171824264,0.6764555580407556,0.7240633907701115,0.5386083021170069,0.3834242444785456,0.7409336052485198,0.7132732678197442,49.0,right
0.7093093513208579,0.8386575276932327,0.5878209367182414,0.32791554840107473,0.8008074571040211,0.7452155277805499,0.4235778963339847,0.623238155545156,0.6313926535583771,0.7195148559485371,0.4775981897380852,0.364674176560289,0.7178920338888224,0.7061861425594707,50.0,right
0.7131107109823063,0.8554404935703381,0.5918480396386165,0.3336308194734148,0.775405102900379,0.7638461796617921,0.44174114499206496,0.6091396968492155,0.6121520198085495,0.7021876934663647,0.4304101136497227,0.35923865430461,0.704467714519442,0.699741962873361,51.0,right
0.734642904952711,0.8549002383719291,0.6019129218058907,0.3422037260819959,0.7840645965684843,0.7411883153307084,0.4513370205406577,0.6387946924104639,0.6293668669631867,0.6911413696005386,0.38894218943330117,0.364674176560289,0.6880383377559847,0.7081174332729603,52.0,right
0.72957522941444,0.8570653832510509,0.5993962220753879,0.34381110355680633,0.8129325074051721,0.7160124843585667,0.4578473887719401,0.6864363551193051,0.6658223478680494,0.7162659614264957,0.392278793413082,0.3600541896316223,0.6682025170597781,0.6939431827524096,53.0,right
0.7086773993974447,0.8549002383719291,0.5883250433667051,0.3336308194734148,0.8048491405377369,0.7296072029572951,0.4677865335357474,0.6742829264137722,0.6668357232663613,0.7355427905845886,0.405147773615651,0.3502719054806942,0.6601881404012842,0.6958769274563927,54.0,right
0.7118419830749971,0.8435301346924184,0.5812790508228822,0.3234505353900241,0.7921479634359159,0.7462223308932057,0.46675803109664393,0.6246962337145252,0.6359494681465545,0.7214641101712154,0.3965684534804801,0.3494563701536819,0.6728108313317795,0.697165272595214,55.0,right
0.7137426629057195,0.8375749552534622,0.5802727542814701,0.31862840296545425,0.7650106319582726,0.7376635455769911,0.46298859576145013,0.6125428050089905,0.6318988591572126,0.710201660784306,0.4056243016594596,0.34402188284141744,0.696253026137791,0.6643038825814926,56.0,right
0.7257762817829878,0.8440724519337834,0.5878209367182414,0.31827128355179557,0.7546183599736445,0.7472310517258816,0.47532540420613145,0.6631015498215316,0.6511394929070402,0.7225472124962531,0.42421343373397136,0.34619578126064354,0.7106789041231121,0.6887873482051248,57.0,right
0.7308415452912627,0.8543579211309869,0.5928543361796343,0.3209500192674435,0.8042730137370668,0.7749248493390848,0.4900611815379623,0.6864363551193051,0.6339236815513605,0.7249295426675824,0.423736905690161,0.3559785828831714,0.7090760287914444,0.7036069982908337,58.0,right
0.72957522941444,0.8451550243731347,0.595371035910528,0.321486038501555,0.8319864720149326,0.7633437369656679,0.488690715089918,0.6470580611355636,0.612658225406987,0.7138836312551673,0.42755003771375044,0.36222860552266134,0.7054696546816395,0.6894327477702831,59.0,right
0.7264082337064011,0.8327023482542728,0.5948669292620643,0.31987866102674456,0.8100452765298272,0.7426994788595049,0.48937594831380515,0.6674767100942205,0.6516456985058756,0.7192983179742116,0.4571020378155932,0.36657640236111355,0.7116808442853086,0.6965198730305566,60.0,right
0.7175440225671679,0.8375749552534622,0.5858083436358115,0.31773526431768406,0.8233247793898002,0.7512582641757195,0.4941738860881024,0.7282457051499112,0.6845567760198339,0.7368420184308793,0.4709249817785235,0.35923865430461,0.714886594948644,0.6932977831872513,61.0,right
0.7162752946598587,0.819707354894053,0.5737289516305957,0.30934057730231057,0.8239031051474974,0.7532718704006403,0.47909483954132526,0.6801170906204117,0.6521519041043131,0.7303442293866267,0.43183969778152154,0.3421196570405911,0.6988578416316562,0.682345622510006,62.0,right
0.6941111487655469,0.7818090713382198,0.5475594912932458,0.29862495421219304,0.7794467863340948,0.7381659882731153,0.46744326432053107,0.6242102076580682,0.6318988591572126,0.7082519941085543,0.3913257373250918,0.33478242645568734,0.6842312703769222,0.6623701378775131,63.0,right
0.6877771573499629,0.7899293956563014,0.5430301984799222,0.3009465705143217,0.7707850937085112,0.7416907580268326,0.4862917462027685,0.6893543629864478,0.6875949738122973,0.7225472124962531,0.41134445353140237,0.3508152507177069,0.69244634030483,0.6862106579269778,64.0,right
0.7086773993974447,0.8289123136944383,0.5742330582790593,0.3086263384751309,0.7938807417524387,0.7739180462268198,0.49246015042511004,0.7306749096687497,0.7346827006888272,0.7522199266905432,0.46186913359954573,0.36413083132348767,0.7034661559035023,0.7364683883045515,65.0,right
0.6934767848121375,0.8327023482542728,0.5752393548200772,0.30076767069372945,0.802540235420544,0.8021142865361472,0.4804666111953768,0.7122022164639432,0.7336702894915543,0.7511372368187468,0.47569116989010496,0.3535324943737326,0.7004607169633239,0.7190720479412,66.0,right
0.6871427933965535,0.8180845272558699,0.5631599628148614,0.2946952802078693,0.8262120102646939,0.7839879950714366,0.49280341964005814,0.7374811259883014,0.7443034996642606,0.7444229098001696,0.4752146418462946,0.35489137493775935,0.7012619638561075,0.7074744876987964,67.0,right
0.6985444603504085,0.8299948861337896,0.5732267617376472,0.3111268545977124,0.8163980640382178,0.7426994788595049,0.48903398430486433,0.7350519214694629,0.7412662660732341,0.7478883422965366,0.4971403779005872,0.36440198647028765,0.7112802208388391,0.71456161295907,68.0,right
0.6947431006889602,0.8419052450117057,0.5777560545509708,0.325057912864974,0.7788684605759464,0.7381659882731153,0.45339272021285915,0.6635885016418097,0.6916455828016392,0.7366254804565537,0.5038135858601471,0.360597534868635,0.71448597150233,0.7139162133939116,69.0,right
0.6934767848121375,0.8348674931333981,0.5681933622762543,0.32059289985392425,0.8008074571040211,0.7477334944220022,0.45476318666090343,0.627613315817845,0.6531643153011917,0.7240633907701115,0.4923741897890057,0.3562497380299714,0.7122817794547798,0.7261591732014736,70.0,right
0.708043035443545,0.8354098103743368,0.5611473697324314,0.31773526431768406,0.8469987531914285,0.7567966401543575,0.48732024864187373,0.6616425458879593,0.6688605456605128,0.7364089424820595,0.487607094005055,0.36086972495863634,0.7136843430632904,0.7255162276273097,71.0,right
0.7460421598765699,0.8494853141313783,0.5782582444439193,0.3234505353900241,0.8498837851092915,0.7905331741627304,0.498286590638509,0.7044239480314776,0.6997458365792806,0.7498375965192139,0.5176365298230774,0.3820653639145206,0.724503846938962,0.7583751636505376,72.0,right
0.7416088482917083,0.8500276313727433,0.5893313399077229,0.3261292711056729,0.8319864720149326,0.7945623043325885,0.4876622126508128,0.6893543629864478,0.6916455828016392,0.7522199266905432,0.5347951700934175,0.38396758971534517,0.7331195403131829,0.7693297783187774,73.0,right
0.7321102731985718,0.8419052450117057,0.5958732258034765,0.320414000033332,0.8400698388823642,0.7557898370417018,0.4869769794266574,0.6762270306399767,0.6724049490514137,0.7407409393293083,0.468064905842553,0.366033057124314,0.7253054753778461,0.7532217830942436,74.0,right
0.7568094628770154,0.8500276313727433,0.6054359180778022,0.3102337159499413,0.8337192503314554,0.7426994788595049,0.5000003263015014,0.7209525370096994,0.6916455828016392,0.729694615463651,0.43422324567331216,0.373640925384203,0.7255057871010022,0.7738402133009039,75.0,right
0.7302095933678494,0.8337849206936241,0.5732267617376472,0.30183970916195246,0.790415185119393,0.7442087246682849,0.48526324376366503,0.710743212530371,0.7078470545583588,0.7390082230811243,0.5128694340391267,0.38097867344070835,0.7493486053534841,0.7557984733723906,76.0,right
0.6915761049814151,0.79480200265591,0.55359918729566,0.2963026576826797,0.7852190491268551,0.7346431362398089,0.45202225376481486,0.6436568045038111,0.6810123726289294,0.7511372368187468,0.5943756983405404,0.37826091231286796,0.7707869198352579,0.7422671684260074,77.0,right
0.6789105341802397,0.7796418644165648,0.5671870657352365,0.28558635436517754,0.8221703268309746,0.749747100646923,0.46161812931340584,0.627127289761388,0.6658223478680494,0.7457225500997016,0.625358190246553,0.3804342932604925,0.765978675386199,0.7384021330085346,78.0,right
0.6782785822568265,0.7785592919767907,0.5611473697324314,0.2786208252315463,0.8221703268309746,0.768882112944306,0.48457801053950966,0.6460860090226515,0.683544364822561,0.7491879825960686,0.6677791705509648,0.3872286960801983,0.761370361114353,0.7364683883045515,79.0,right
0.6865108414731402,0.7688140779779964,0.5359842059360993,0.27629920892955706,0.7765595554587499,0.749747100646923,0.47087073564678406,0.6499760690027063,0.700253006379155,0.7658651187020231,0.721640454598889,0.3934776837762737,0.7790023713092653,0.761597253493342,80.0,right
0.6846101616424178,0.7579862915398508,0.5244089205793472,0.26290416989640697,0.7603928217238831,0.733634415407133,0.4684717667596363,0.6757419303473426,0.724051418918199,0.7662981946506742,0.7445192467407988,0.3923909933024614,0.7952310548033097,0.7628855986326677,81.0,right
0.7131107109823063,0.756361401859138,0.5561158870265501,0.25236642628566397,0.7673217360329474,0.7426994788595049,0.4934886528642135,0.7262997493956806,0.7559491210342397,0.7721467822250228,0.7511924547003588,0.40081543183277724,0.8014426259530802,0.7905936080900915,82.0,right
0.7435095281224342,0.7650240434181583,0.5782582444439193,0.25754601823758616,0.763280052599228,0.7457198881970815,0.48937594831380515,0.7403991338554441,0.7650627502101965,0.7912062485023057,0.7573882269437391,0.4122277516943189,0.8032458130080604,0.8009028231936739,83.0,right
