AF3,F7,F3,F5,T7,P7,O1,O2,P8,T8,FC6,F4,F8,AF4,ID_all_events,EventId
0.3988838036634519,0.6592789989406782,0.6070213507322553,0.3202178925285839,0.34607174046640665,0.555965310567629,0.3297300357525863,0.4456018161383142,0.5188455976273474,0.48459873432362244,0.5655643926241645,0.48069609943289215,0.13491487410043224,0.4118619449149854,1.0,left
0.3519550457563767,0.6675350900423727,0.6185145768396492,0.3202178925285839,0.42144289549438696,0.5167922577617787,0.2900897593380982,0.5462960922172471,0.6529952603632623,0.5210422828439718,0.613512829274514,0.5291454157018762,0.14158626692514087,0.4024396937926724,2.0,left
0.3128477475004914,0.6727505958684752,0.6119918101594717,0.35294108919573297,0.3747351780567598,0.4832041894494665,0.29910000480380816,0.5717616980011186,0.6640790432060015,0.5492407594058264,0.6305844039958597,0.5158974994736845,0.1452926590116208,0.39301533147829915,3.0,left
0.27597879950386073,0.633636784957627,0.5672564921524135,0.3322942661892725,0.2983006921756157,0.5205226863354611,0.36576587086493717,0.5671331908048955,0.6718398023923484,0.5440343021432277,0.6029779798821906,0.4901599264227414,0.1408448755770042,0.38913496007735304,4.0,left
0.253629340261206,0.6101694915254239,0.5256293381339603,0.28437897810392165,0.38641160203061986,0.5167922577617787,0.33333447705613395,0.5694474444025559,0.6552120169321611,0.5110639282234306,0.5684709873152336,0.46631367721199446,0.12750208992747147,0.38082108489948396,5.0,left
0.27932781405569784,0.6544971530718655,0.5663253444331087,0.34709837656283327,0.47239787172064496,0.44216236956875576,0.21351296638159667,0.4733816755198461,0.5000010555982612,0.4663786123826483,0.553940780727185,0.47350560910141937,0.11697580088478965,0.34700611823542715,6.0,left
0.24022477121810937,0.6844842425847464,0.6349794455353965,0.433580315785413,0.4299353915319557,0.45895285093543237,0.1612614343655494,0.3287033567695943,0.3259434410396267,0.41822177426017326,0.5147107447162522,0.4689632604576328,0.10719062086302689,0.30266052450460634,7.0,left
0.16871458693746888,0.6744885460803385,0.6203792386005347,0.4179972759726258,0.43842788756953155,0.4776120993784261,0.10900990234880226,0.25347248242280784,0.20953416444094586,0.3726681647691681,0.44169932723593064,0.4171089846531757,0.0896962130599821,0.26219530217516507,8.0,left
0.2871492737068735,0.7283782441735589,0.6113706506263021,0.4370862401003297,0.49787738137552395,0.36007162422836814,0.018919456777584998,0.21874986224648296,0.16075285275483964,0.3726681647691681,0.4297125639318615,0.43452011982228456,0.08865837810340782,0.28769428246929607,9.0,left
0.49609033402942515,0.8087791313559318,0.676607782714985,0.5286334461915541,0.47027525309700025,0.25372954037540296,0.023422863926590765,0.2604174472684164,0.26164061097995983,0.40433898977214433,0.4733018002625027,0.5355790881858571,0.10733884266718796,0.3736134744735722,10.0,left
0.49609033402942515,0.8022593352752541,0.6946261418243456,0.5438262794472415,0.4171976582462733,0.3283558757796712,0.12072047652069884,0.3252341804239265,0.3636367474899629,0.41388361064745993,0.45332363085008787,0.551476587659689,0.10570783816663809,0.3752770939860568,11.0,left
0.35307422088644813,0.7892213983050844,0.6436780453234903,0.5266853807556977,0.4246288449720197,0.49067215217287696,0.21801808911410347,0.36805448414214226,0.4146327045484455,0.4151848118834778,0.40828178889080746,0.5147615519233231,0.08954799125570556,0.2954550252711847,12.0,left
0.48491560440810133,0.8270309189616949,0.6561047854722233,0.5695368856473753,0.4692159653265193,0.5988758975232074,0.30000068623347076,0.48611227436050797,0.5654101527454216,0.44728854447225075,0.4202685521948766,0.5548829887528193,0.09518154912395538,0.29379140575870366,13.0,left
0.8860356306207819,0.8470223119701696,0.7402926075509519,0.6217370274865655,0.4840742956945121,0.5839541832313984,0.33243208004227043,0.5601860219084642,0.6585392629815843,0.472885444721836,0.42680666095768593,0.5840269628971857,0.10644922951477476,0.3364733799766064,14.0,left
0.9899444455078736,0.8357239804023724,0.7679407141679544,0.6268022943552101,0.4575375198104865,0.4608216180117495,0.2423433500545542,0.45949174582862895,0.4889130503624912,0.44034715222806753,0.3904825279212112,0.527630338448942,0.09725721903710305,0.32150713794129615,15.0,left
0.6782137454282946,0.8087791313559318,0.6949361300104826,0.5944685624079789,0.4405525277353419,0.4832041894494665,0.17477508698026867,0.3750016530385665,0.33259371074457533,0.39088993902934277,0.34071902595174386,0.4678273129072732,0.08183848114720593,0.26829242546457266,16.0,left
0.4335186568199987,0.7818342823091537,0.6383975977098952,0.5668098907719887,0.45222895170920907,0.5223843478328192,0.18648737673566274,0.41435278041021206,0.40133216513768133,0.39262487401058976,0.31601850481225036,0.4753983744992709,0.080652424386356,0.22228426781729738,17.0,left
0.4491615761223571,0.7818342823091537,0.650513166511594,0.5671986136541172,0.5042452372481137,0.3115653944130017,0.12702696211322717,0.39352008992510434,0.42683119926561375,0.40997835462087906,0.33345392265757745,0.49545765135636266,0.08747232134255789,0.19235072815021326,18.0,left
0.45028075125154743,0.7557584083684752,0.6644922139132863,0.5703158150866017,0.5541409257038907,0.29104448447264275,0.076576792956498,0.23726829913393033,0.2827061319709685,0.36616050627054975,0.3254625165492335,0.4583649274750794,0.07916992401729939,0.1335920247600626,19.0,left
0.37765351955086857,0.7205558130294918,0.654240123711336,0.5492787855230432,0.5414011708768598,0.5167922577617787,0.1225235549642214,0.1400476075023036,0.16962199022519542,0.3049891773102704,0.2706135114458803,0.41445940140753734,0.0633062383874714,0.09645193026309684,20.0,left
0.4435742113112582,0.7483696371820336,0.6421245549096355,0.5375933602572438,0.4851376265485001,0.46828247515765753,0.18918942102464342,0.20254788300933058,0.19068751121534433,0.2937096214537096,0.2633484081517139,0.4254354225350081,0.06478873875664348,0.1491135103638399,21.0,left
0.5027926185505365,0.7601032838983048,0.633427138282677,0.5360340177032121,0.4575375198104865,0.34701157143391725,0.22072184898728509,0.2604174472684164,0.21064254272496186,0.29457708894450185,0.2916811350798447,0.43981928631356126,0.06968118760385877,0.16463394037159063,22.0,left
0.4223481826169859,0.7262049788135592,0.6321836360549611,0.5087655526246255,0.43312134100958843,0.5093242950383683,0.30000068623347076,0.2557889400721862,0.2128592992938536,0.286334495464299,0.2789680689613139,0.42808500578064645,0.06345446019174794,0.09257261445818088,23.0,left
0.3396653964241665,0.6992601297667793,0.619136919533954,0.4760416141199908,0.38747291134327355,0.6026063260968897,0.3702709935974404,0.2569460668710164,0.24611909260726605,0.293275887708484,0.2553576937602635,0.4163521668053889,0.06360268199590902,0.06651839059601272,24.0,left
0.30502628784930863,0.6718816207627132,0.5868283416756288,0.4663027706150764,0.3779191059930511,0.4925338136702351,0.29549556350096395,0.20370500980816075,0.20288178353861497,0.28546702797384604,0.24155448170328775,0.3906131521967904,0.06360268199590902,0.08702862354475016,25.0,left
0.29385581364716273,0.6797040519067803,0.5883818320894836,0.4627968463001597,0.4033965941065958,0.4347015124228477,0.1540542673426586,0.10995349452311132,0.10975689569634994,0.2468548107270241,0.21830725790932703,0.37623072997589446,0.05337283656154845,0.049889584644247975,26.0,left
0.2670381647234876,0.7088221663135599,0.6029820390243437,0.45890219910341834,0.4416138370471643,0.3563411956561424,0.04504608057735737,0.0844922968417805,0.10310451479401905,0.23600898861569064,0.21576450634224287,0.3777443656711714,0.05381778430136297,0.0,27.0,left
0.27374470466377687,0.6879617981989838,0.5840325321954349,0.4635757757396899,0.40870516220787323,0.24626513044074017,0.0,0.10416786052805804,0.16518847708827167,0.2689810148543472,0.24663998483745786,0.3758516002733199,0.06819868723480216,0.027161544210585475,28.0,left
0.3016772732983455,0.6627548993644066,0.5877606725560724,0.4701989014870911,0.2993640230287795,0.25932518323519105,0.04234232070417576,0.09259218443540362,0.18847075464731233,0.2819963318519232,0.2796943717757756,0.4277073176357291,0.07249824886525857,0.0837024401162445,29.0,left
0.2815661643149525,0.6783997616525426,0.619446907720091,0.4694199720475609,0.3269641297667931,0.3152958229852203,0.12072047652069884,0.08796367723918053,0.20177340525459897,0.2850324680688505,0.31383890465225406,0.5367150357362185,0.07249824886525857,0.08924643102967522,30.0,left
0.2815661643149525,0.6675350900423727,0.6150976078260442,0.45461586167400014,0.4171976582462733,0.34701157143391725,0.18198225400245605,0.13541689625525777,0.2771621293526536,0.3193065217032949,0.35597484363736065,0.6237707115817646,0.08554487323368676,0.09312680243061777,31.0,left
0.3553083157265249,0.6540634931142382,0.5970804318775791,0.4491618719232289,0.33545662580436186,0.3675324813742762,0.24594607577390093,0.2581031936698537,0.39911540856964933,0.35574841790444367,0.3973844798080055,0.6419386645983636,0.10051894571098607,0.14467895099089034,32.0,left
0.4223481826169859,0.6736195709745765,0.6123017983456087,0.4592909219855468,0.24946833457300244,0.3488803385102415,0.2828825923159073,0.4004628507198973,0.5033283016476844,0.3817790518992563,0.44206317036019804,0.6037099931670156,0.1123795133186789,0.16685174785608226,33.0,left
0.4715067799458268,0.684050582627119,0.6318736478688223,0.46396598229678787,0.30360926027689317,0.30783496583931935,0.25675768409963595,0.4409733089420911,0.5088680818721016,0.3852497480215167,0.4729379571385177,0.5563966244480962,0.12008874109996093,0.1845899853483246,34.0,left
0.507260808231571,0.684919557732881,0.6356017882297014,0.468250836050931,0.31953294304104674,0.3022357701907694,0.24054027161103164,0.40972427321398186,0.42904795583364574,0.3592191140267058,0.45622953382426346,0.5567757541509657,0.11282446105849431,0.23669632188103407,35.0,left
0.42569719716882304,0.6579747086864405,0.6119918101594717,0.45344820935264707,0.3566868551276272,0.3414194813643334,0.2234238932769692,0.3611117233473493,0.37250588496118553,0.32451215280646295,0.3944785768338317,0.5439069676253467,0.09295765740664752,0.1873609252087931,36.0,left
0.2770937192147471,0.601911745232881,0.5641506944860843,0.4004676543986516,0.4246288449720197,0.3563411956561424,0.18738805816532533,0.26620528531429244,0.33148533246055933,0.2885031641911109,0.33018486827631577,0.47123371400069836,0.07605641914757832,0.05155214856026902,37.0,left
0.23351823127782012,0.5906117584745765,0.5467534949098933,0.3938445286512504,0.39172017013272864,0.35820996273101,0.19549590661717176,0.14699036829708945,0.2549882300784958,0.2620396226105033,0.3014889899410953,0.46215045827107915,0.07131219210452411,0.014967297631770293,38.0,left
0.3173201926007039,0.6219031382413558,0.5716057920464621,0.44721529016234385,0.38959552996691826,0.3414194813643334,0.200001029350382,0.14351898789969653,0.2394688229023174,0.293275887708484,0.31892440778642417,0.5492061341166252,0.07605641914757832,0.06152964325061916,39.0,left
0.38770907404212807,0.631463519597288,0.5824790417815802,0.45227907335601714,0.43524395963323315,0.3059697515532065,0.1945952251875127,0.3113442507327093,0.39911540856964933,0.3600874076765894,0.3675984555343401,0.6275548008198104,0.08954799125570556,0.09589774229108983,40.0,left
0.4111734529956621,0.612776416843051,0.5880706607422095,0.4269571900380118,0.4341826503214108,0.3880604968935941,0.24774743863392246,0.48495294350995266,0.5886924303044623,0.40997835462087906,0.4311658612773961,0.6718394565902219,0.10911806897201348,0.13580983224455068,41.0,left
0.3999987233743383,0.6045186705508474,0.6045355294379569,0.42500912460215545,0.4161363489336196,0.4776120993784261,0.2738740624336984,0.5324105706285778,0.6308192498917222,0.44685481072702515,0.490737218108114,0.7142327885204391,0.12172002792784387,0.1640797523995836,42.0,left
0.39441135856410625,0.614514367054916,0.596769260530305,0.42189340684464227,0.3757964873694064,0.4776120993784261,0.2540539242264508,0.5196755636862704,0.6186249775684516,0.4585689264882422,0.5234291453559532,0.7399703615713804,0.12512997640588708,0.16685174785608226,43.0,left
0.45251484609250525,0.630594544491526,0.5874495012090399,0.42189340684464227,0.33864055374066027,0.4645520465839752,0.2837832737455699,0.5648145291046944,0.6807110510592267,0.46551031873242543,0.5357790600673944,0.7361848307753824,0.13031858653432238,0.19235072815021326,44.0,left
0.45251484609250525,0.6249453787074586,0.5961481009971354,0.4289052554741719,0.3694266099554824,0.4477615652172986,0.31711706456752964,0.5706023671505704,0.6873613207650422,0.4672460798731013,0.5285146484901233,0.7153672945131433,0.1326907000557913,0.20288241081257397,45.0,left
0.34972095091629996,0.5914823887711869,0.5831002013149931,0.41760855309049916,0.4076438528960509,0.37686210559650135,0.2504511985071076,0.3958343435236671,0.515522573970955,0.41691974686472477,0.47875045480376066,0.6589706700648996,0.11415873962338985,0.14301533147840573,46.0,left
0.3195542874407806,0.5880048331566101,0.5666353326192457,0.40825843246771143,0.3269641297667931,0.26678959316985384,0.15045154162331542,0.1898150801169436,0.32261619499020355,0.35401348292319845,0.4140935948391551,0.5991676445232308,0.09103049162487764,0.08592024760073613,47.0,left
0.3709512350288833,0.6210341631355938,0.5588690637115938,0.4179972759726258,0.2887468868253933,0.24813389751560777,0.12612628068356457,0.14120473430203617,0.28048726420556136,0.33579170866302377,0.39084567932830083,0.6074940824050632,0.08465526008127355,0.09257261445818088,48.0,left
0.3955305336933037,0.627552304025425,0.5647718540192539,0.4242301951626253,0.40445790341841814,0.2985053416185437,0.16396347865453365,0.17939873487484448,0.2915752694413314,0.33449050742734343,0.39702132840091586,0.6233915818788933,0.0859895386461691,0.12306034209770189,49.0,left
0.39664970882336803,0.6158186573091537,0.5983227509441598,0.4253993311592552,0.5074311867257464,0.39365258696317795,0.2252252561369943,0.2604174472684164,0.33148533246055933,0.3449025957931102,0.415909351874884,0.5624526087871597,0.09340260514646204,0.17073211925702836,50.0,left
0.4558681160626463,0.6240764036016948,0.6067101793849812,0.4355283812215731,0.48089238930038647,0.43843194099507343,0.2630641696921643,0.40856494236433605,0.451219743912155,0.39262487401058976,0.4689425999427925,0.5117342805327674,0.1114901824934833,0.24057669328198017,51.0,left
0.47932823959700244,0.6171229475633897,0.5874495012090399,0.43825537609695786,0.4161363489336196,0.3992517826117208,0.24864812006358505,0.48148376716428487,0.5443446317544129,0.42559690024958385,0.5078094845463532,0.5151406816261925,0.11786513170986979,0.2633036781191791,52.0,left
0.4111734529956621,0.5806160619701703,0.5886918202756206,0.41721834653309564,0.4416138370471643,0.4496232267146638,0.28828839647807314,0.4374997244938754,0.5875819408230711,0.43080335751218435,0.4874681637265681,0.4844816302288901,0.10971095618877236,0.22616358362221334,53.0,left
0.40335199334447935,0.5558453058789841,0.6054678603184005,0.4028044427169384,0.4341826503214108,0.5335827391299119,0.352252218249518,0.4525489850347455,0.6474512577458142,0.44425158209555526,0.47875045480376066,0.46404322366922557,0.11297240053543778,0.23669632188103407,54.0,left
0.46368532029464404,0.5593220338983063,0.6032932103713762,0.41410262877558246,0.31422437493893796,0.48880338509801646,0.3108105789750013,0.45023473143617565,0.606430705245188,0.43774474975636757,0.5038134356337327,0.5416350725246257,0.12157152379635061,0.30931289136248097,55.0,left
0.4223481826169859,0.5754013837393224,0.5837213608481608,0.42306254284127043,0.2717618947502558,0.47388167080620036,0.26756757684117005,0.2997685746400549,0.4323709794900381,0.40086829365022325,0.4896470721696691,0.586676546142824,0.10837667762376135,0.3209540055653193,56.0,left
0.34860177578623563,0.572794458421356,0.5722269515798732,0.41176435678232437,0.33545662580436186,0.4776120993784261,0.26576621398114497,0.1782416080760143,0.32372457327421955,0.38308025313527594,0.449690733344557,0.5314158692449418,0.09547827505960971,0.24445706468292272,57.0,left
0.37206615473976967,0.5627987619172892,0.5799944036484206,0.41098542734309795,0.3588114952934376,0.3414194813643334,0.21891877054446596,0.23148266513886995,0.355875988303616,0.3943606351516049,0.4733018002625027,0.5291454157018762,0.10244639381997267,0.2123057175309171,58.0,left
0.42569719716882304,0.5658410023833902,0.5868283416756288,0.42228361340174025,0.3248415111423242,0.2574599689490853,0.19819795090685588,0.2916686870464389,0.3625283692059469,0.39696386378273374,0.5118048417420784,0.5836492747522684,0.1065974513190513,0.26607567357611117,59.0,left
0.42010983235772414,0.5749668961864405,0.5684999943801312,0.4164394170938692,0.31422437493893796,0.30037055590465656,0.20900955923259446,0.24189901038096906,0.3070946766175098,0.39305860775615464,0.4885576179481177,0.5647245038878808,0.10244639381997267,0.2948997817027177,60.0,left
0.3843558040719799,0.5910470736227129,0.5681888230328571,0.40825843246771143,0.3025479509650708,0.26119395031005865,0.18648737673566274,0.26388882766490696,0.31485543580385666,0.3973975975283004,0.47548070870560366,0.5348222703380703,0.10244639381997267,0.28492228701236755,61.0,left
0.3977646285342544,0.6084315413135606,0.6008073890773211,0.4160506942117408,0.36730399133100633,0.2443999161546273,0.18918942102464342,0.35879746974968896,0.3713975066763098,0.40086829365022325,0.5081726359534429,0.5968971909804619,0.10348422877654695,0.3015521485605923,62.0,left
0.39329643885321985,0.6023470603813568,0.6001862295439082,0.409816291346468,0.4405525277353419,0.2873105031102057,0.21441536339475675,0.35300963170291055,0.3691807501082778,0.4021694948862411,0.5143475933091626,0.6597274879123898,0.10348422877654695,0.3309315002556694,63.0,left
0.35418914059733453,0.5684479277010173,0.5638395231388103,0.37397811875929143,0.3365179351161842,0.23880427329483922,0.19909863233651848,0.2685195389128552,0.35033198568616086,0.39088993902934277,0.4783866116797775,0.6373963159548737,0.10348422877654695,0.3264958852862563,64.0,left
0.3296098419329141,0.5588875463450851,0.5479964055569209,0.3654069275760339,0.24522309732488878,0.24253470186706494,0.19189146531432755,0.23032553833913738,0.34922360740215197,0.37874208952256083,0.4605880424270765,0.5749437071675665,0.1008153893194228,0.29600815764716515,65.0,left
0.2581017853614185,0.5658410023833902,0.5594908148252102,0.38761160946125095,0.3397018630524826,0.29104448447264275,0.181081572572797,0.24189901038096906,0.3259434410396267,0.39002164537945916,0.46458409133969525,0.5329295049402187,0.09873971940627513,0.27494479232201385,66.0,left
0.2044707429323651,0.5471530720338986,0.561354293425202,0.38176889682835125,0.41082778083234217,0.2555947546615158,0.17387440555060607,0.23495404553536758,0.36474512577484575,0.40997835462087906,0.46930575134988217,0.5246030670583863,0.10185322427599708,0.27050917735303415,67.0,left
0.23463740640788444,0.5380263506355938,0.5538986042841341,0.36930305844805034,0.37685779668122876,0.2630591645976281,0.2063057993594093,0.2824072645523472,0.451219743912155,0.41041208836610643,0.46930575134988217,0.5344445821931529,0.10318750284089173,0.2804866720433843,68.0,left
0.2815661643149525,0.5523685778600012,0.5486175650900904,0.36774519956929197,0.3237781802891604,0.2705200217435362,0.19909863233651848,0.36342597694591205,0.43569822553946125,0.4034706961219232,0.46022489101998687,0.5374718535837086,0.09933288895025072,0.29212778624621905,69.0,left
0.30055809816828116,0.5558453058789841,0.5464429151430661,0.3478773060020597,0.31422437493893796,0.24999911180317724,0.19819795090685588,0.38889158272888125,0.41352643746095197,0.41605227937427003,0.465310394154157,0.5268735206011552,0.100370723906825,0.28991103435775756,70.0,left
0.29050254367702166,0.5488918498410182,0.5442682651960418,0.3385279272167576,0.3619954232297289,0.3264906614935583,0.25675768409963595,0.3865773291312209,0.4745020214711886,0.4368764561061447,0.4729379571385177,0.5177902648718309,0.10437355960162709,0.2843670434443304,71.0,left
0.2804469891848882,0.5536720405189843,0.549549895970534,0.3638490686972773,0.34288781253011535,0.401120549688045,0.27837918516620164,0.36342597694591205,0.4955675424613375,0.4438178483503279,0.4649472427470691,0.5314158692449418,0.10289105923257047,0.28325866749988293,72.0,left
0.268157339852678,0.5467185844806774,0.5622866243056439,0.37943062483509316,0.3301480577022602,0.35820996273101,0.25945972838861664,0.33680544841403304,0.4822627806575355,0.4412154458782904,0.46095119383416616,0.5563966244480962,0.10467028553728142,0.2888026584133101,73.0,left
0.2670381647234876,0.5528030654128813,0.565393013552665,0.3720300533234351,0.4150730180804558,0.3152958229852203,0.2441447129145793,0.3668995613941277,0.5166288410584485,0.448590571867701,0.4769340060511382,0.5783501082609916,0.11549301818840085,0.3015521485605923,74.0,left
0.3094987329495211,0.5901780985169491,0.5660141730858328,0.36930305844805034,0.39490409806901994,0.28917571739631853,0.2153160448251228,0.39930792797188275,0.5332608489125406,0.4537962029708691,0.49727532687092335,0.5961403731326751,0.12008874109996093,0.30931289136248097,75.0,left
0.34413358610520106,0.5949582891949152,0.5765762514739201,0.37592470052017646,0.31422437493893796,0.25372954037540296,0.19279386232819107,0.3773159066362268,0.49778429903022925,0.4446861420002133,0.5074463331392636,0.5677517752784365,0.11653085314497424,0.3076492718499999,76.0,left
0.3251416522518795,0.583224642478644,0.5843425203815737,0.38332675570710784,0.398088026004487,0.276119217392079,0.20270307364006612,0.39814859712132744,0.5011073226857619,0.448590571867701,0.5114416903349888,0.5083278794396371,0.11845801892662866,0.2998885290481077,77.0,left
0.29050254367702166,0.6027807203389841,0.5719169633937362,0.38098996738882107,0.47770643982274663,0.3264906614935583,0.2018023922097001,0.40509576601775876,0.5343671160000412,0.456399431602339,0.5052667329792673,0.4897807967201686,0.12053368883977633,0.2943466493267408,78.0,left
0.30614546297937295,0.6214678230932211,0.5582479041781809,0.3704721944446785,0.4246288449720197,0.3227602329213397,0.1945952251875127,0.2951400674438318,0.4745020214711886,0.4316708250029766,0.48201950918530834,0.4878880313220204,0.11445518323182657,0.2943466493267408,79.0,left
0.3407803161350529,0.6075609110169502,0.5678788348467201,0.3704721944446785,0.399151356858475,0.27798443167819187,0.18198225400245605,0.21874986224648296,0.3525508534515751,0.397831331273526,0.4580452908599906,0.4700992080079942,0.10541139455820048,0.29212778624621905,80.0,left
0.320669207151667,0.597131554554915,0.5675676634996876,0.3712511238839049,0.399151356858475,0.2686548074559667,0.1513522230536779,0.27083379251051554,0.33813771336289733,0.3921911402653624,0.4584084422670802,0.4678273129072732,0.10348422877654695,0.2893579019817807,81.0,left
0.29385581364716273,0.5901780985169491,0.5588690637115938,0.3556680840711195,0.3641180418533736,0.29104448447264275,0.12882832497254526,0.26504815851545516,0.3713975066763098,0.397831331273526,0.4718485029169681,0.4742624269489113,0.10570783816663809,0.2910194103017716,82.0,left
0.2592167050723049,0.5693177304023731,0.5554520946979888,0.33424233162512884,0.3301480577022602,0.24253470186706494,0.13603549199543608,0.15856604438974387,0.3281601976076516,0.39262487401058976,0.454413085071355,0.4666928069148639,0.10363245058070714,0.26053168266268045,83.0,left
0.2268159467567088,0.5588875463450851,0.5514133745705259,0.3268410182759851,0.3131630656271156,0.19402847205169138,0.14594641889081217,0.17129664323040572,0.32483295155822844,0.39305860775615464,0.41663634640624103,0.46707049505978127,0.09770216677691845,0.21507771298784917,84.0,left
0.24916115058017851,0.5619289592159333,0.5598013945920357,0.3373587912201277,0.32165556166468434,0.24066948758095208,0.13423412913541455,0.2233805734944312,0.35920112315652375,0.391757406520135,0.4155462004677961,0.4750192447966963,0.0994811107544118,0.23669632188103407,85.0,left
0.25028032571024283,0.5658410023833902,0.5666353326192457,0.34437138168744674,0.31953294304104674,0.17910320497112764,0.08648600426837305,0.13541689625525777,0.2915752694413314,0.3891541778886669,0.46131434524153825,0.4753983744992709,0.10837667762376135,0.28603066295681145,86.0,left
0.23799067637803262,0.5614944716630514,0.5635295349526732,0.33657986178090127,0.27707046285153325,0.0,0.04054095784485412,0.11111282537276423,0.2760537510686376,0.4147510781382522,0.5070831817318915,0.48183204698325177,0.12097863657959174,0.2915746538702422,87.0,left
0.24580788061003034,0.5454151218220336,0.5560732542311584,0.32528241755974285,0.2760091535397109,0.037311391307035535,0.0666675816446265,0.23611117233510015,0.4057656782746051,0.44425158209555526,0.535415216943127,0.49545765135636266,0.13343209140404344,0.2893579019817807,88.0,left
0.24022477121810937,0.5319426972986445,0.5523457054509695,0.31125872030068535,0.3227168709765067,0.24253470186706494,0.1468471003204712,0.3009279054906102,0.49334656349941497,0.4689810148543483,0.5735551070156149,0.5166543173214713,0.13891770979523432,0.32150713794129615,89.0,left
0.23240331156693372,0.5210771980932201,0.5526562852175534,0.28827436713845245,0.3280254390786155,0.30783496583931935,0.19369454375785367,0.31828701152749517,0.5121953279215319,0.4945770889445029,0.6178706461604335,0.5333086346427933,0.14321698909847314,0.3475613618034643,90.0,left
0.24469296089914394,0.5097780389298308,0.5452005960764854,0.26723807941237965,0.3333340071798929,0.2630591645976281,0.18738805816532533,0.4456018161383142,0.5920196763538854,0.5223426579205608,0.6716308887594149,0.5503406401093276,0.15893245292402547,0.3680715947526352,91.0,left
0.31843511231158317,0.5280306541311877,0.5529668649841373,0.2812625185089228,0.38959552996691826,0.2742504503157548,0.21801808911410347,0.5625002755061246,0.7416866350694704,0.5752713934006373,0.7446416145228429,0.5965180612775924,0.1828020922707898,0.4345889297521879,92.0,left
0.34301866639431466,0.5488918498410182,0.5709846325132926,0.2976237459237545,0.44267514635898664,0.30037055590465656,0.24955051707674514,0.581018712393572,0.7915742138430772,0.6108458221113331,0.7889571536676616,0.6366394981070869,0.19688683392300899,0.4861421339089169,93.0,left
0.26256997504245305,0.5228159759003397,0.5563838339977423,0.2691861448482342,0.4320600316977732,0.28358007453798706,0.1963965880475378,0.5300919089283695,0.7039933286182674,0.5861172155119707,0.7929525108633868,0.6279339305226799,0.19184559861708284,0.46119628599076634,94.0,left
0.23240331156693372,0.5006513175315259,0.5365019962883899,0.24620179168600131,0.4161363489336196,0.3488803385102415,0.1828829354321151,0.5023164576493855,0.6430177446088905,0.5561821516500096,0.789320996791929,0.6188492332354034,0.181319309574401,0.4251666786303048,95.0,left
0.25698261023135416,0.5097780389298308,0.5377449069356608,0.2625637609383187,0.44904502377291067,0.47201290372988325,0.2540539242264508,0.5196755636862704,0.6729502918728798,0.5639910113846476,0.7700691301936935,0.6290698780730413,0.1765750825313468,0.4284918064627803,96.0,left
0.25698261023135416,0.5149935447562708,0.5346379261081928,0.27814605891392397,0.47027525309700025,0.498133009318785,0.29459488207060147,0.5138921337420399,0.7128603548921078,0.5691974686472463,0.7526337123480822,0.612036431048848,0.17865075244449447,0.4251666786303048,97.0,left
0.25028032571024283,0.516297007415254,0.532152696394343,0.27697692291729403,0.4511676423973867,0.49067215217287696,0.31171126040536734,0.5949086420838867,0.7560976639607659,0.5761388608914295,0.7689789842552486,0.5741868893200746,0.1838399272273632,0.42350305911782016,98.0,left
0.25028032571024283,0.5145582296077968,0.5399195568826851,0.2785355236335363,0.42887408222013335,0.48694172360065124,0.3459457326569897,0.6851865729207205,0.8215067611079263,0.5861172155119707,0.7740644873894187,0.5730509417697149,0.18843621479347394,0.4329274214321934,99.0,left
0.26592324501260123,0.5089090638240688,0.5302892177945928,0.26295322565823653,0.4299353915319557,0.3563411956561424,0.30990989754534226,0.5879658812899962,0.7516641508238422,0.5674625336659993,0.7308390941827607,0.5844060925997603,0.1810228659659634,0.40632006519361497,100.0,left
0.26256997504245305,0.5336806475105096,0.5138243490988454,0.23217809442694382,0.4076438528960509,0.2518643260892901,0.27477474386335743,0.48958585880872363,0.6507785037952374,0.5492407594058264,0.6956044153678373,0.5560189363031789,0.165604410403283,0.3652995992957031,101.0,left
0.21452629742449858,0.5362884004237287,0.5138243490988454,0.22165957964531557,0.4097664715205198,0.32089501863377023,0.2972969263602856,0.5289369861803621,0.6452345011769154,0.5275491151831595,0.689066306605028,0.5223326135153226,0.1630837927503208,0.3525501091488543,102.0,left
0.2111730274543504,0.5167314949681359,0.5225223573064941,0.2337359533057004,0.447981692919754,0.32462544720745257,0.28018054802622316,0.5613453527581171,0.6419072551274922,0.5132317707904726,0.6901564525434729,0.5484478747111812,0.17064508105477483,0.3680715947526352,103.0,left
0.2111730274543504,0.5167314949681359,0.5225223573064941,0.2337359533057004,0.447981692919754,0.32462544720745257,0.28018054802622316,0.5613453527581171,0.6419072551274922,0.5132317707904726,0.6901564525434729,0.5484478747111812,0.17064508105477483,0.3680715947526352,104.0,left
0.23575232611877084,0.5475875595867805,0.5271822369671266,0.23996887249600363,0.35987280460525994,0.22387900621427548,0.24684675720355997,0.5439818386195867,0.6762775379223029,0.532321012541102,0.6854334090994971,0.5832701450493989,0.17375858592449678,0.3841462127323929,105.0,left
0.22569677162664448,0.5528030654128813,0.5296674666807348,0.22633463995655845,0.2855629588899262,0.23880427329483922,0.26666689541150745,0.5659738599543402,0.7682919362840366,0.5466383569341264,0.6879761606665813,0.5560189363031789,0.1742029690097615,0.38470145630043007,106.0,left
0.20335156780317476,0.5306384070444068,0.5175518978790343,0.23178788786984406,0.4129503994559869,0.31716103727278977,0.2792798665965641,0.5532432611136784,0.7738359389023515,0.5301515176551987,0.7065017244503551,0.5264958324562379,0.16916229835838603,0.3863629646208544,107.0,left
0.20223239267311044,0.5541065280718644,0.5100962087379681,0.25321364031553095,0.5127397548270238,0.3115653944130017,0.2342337860185033,0.4733816755198461,0.7017765720502354,0.5158358255813731,0.7141299791516111,0.5336863227877107,0.16234240140218414,0.3791574653870029,108.0,left
0.19776420299207587,0.5480220471396606,0.532152696394343,0.24620179168600131,0.4320600316977732,0.2817148602504176,0.18648737673566274,0.44328756253975143,0.6818173181467273,0.534057599841546,0.7108609247703477,0.5291454157018762,0.16753157618505288,0.3525501091488543,109.0,left
0.2044707429323651,0.5089090638240688,0.5529668649841373,0.23996887249600363,0.39490409806901994,0.276119217392079,0.1774771312699528,0.5034713803973929,0.6474512577458142,0.5514102542920671,0.7301127913685832,0.5427710200749871,0.17301719457624376,0.37583233755452383,110.0,left
0.2670381647234876,0.5302039194915267,0.5424047865962933,0.25243471087630454,0.46178275705860017,0.27798443167819187,0.19279386232819107,0.5196755636862704,0.5731709119317685,0.529718610069402,0.7359245973169308,0.5749437071675665,0.16427013183838834,0.43126380191971236,111.0,left
0.23016921672685697,0.5388961533366103,0.5135137693322616,0.2419169379318582,0.4692159653265193,0.2798496459643047,0.19189146531432755,0.4212955412049979,0.5532158804221581,0.4971811437354017,0.6850709494093028,0.5480701865662638,0.15567100857736005,0.38913496007735304,112.0,left
0.08938507071479762,0.502390095338983,0.49767006016968374,0.2243865745207021,0.42038158618173327,0.26678959316985384,0.17117064567742446,0.3773159066362268,0.5410216080988874,0.5006510136978939,0.6425718590171066,0.4984863643045738,0.1524089995762603,0.2965634012152023,113.0,left
0.05251399500901499,0.5097780389298308,0.5035728504775854,0.23178788786984406,0.41082778083234217,0.27238523602964193,0.20090171078004104,0.3865773291312209,0.5299336028631174,0.5054229110558364,0.6305844039958597,0.47274879125363256,0.14203121466495627,0.27771678777894593,114.0,left
0.06368659692031287,0.5154280323091527,0.5001552898832919,0.22672410467617077,0.3811030339293424,0.2798496459643047,0.26396485112182333,0.3599568005993419,0.5654101527454216,0.4889377240957682,0.6109700777074298,0.41672985495030623,0.13298770831866236,0.28991103435775756,115.0,left
0.053631042429053366,0.5102125264830519,0.5007764494167031,0.22711356939608862,0.30360926027689317,0.2817148602504176,0.29910000480380816,0.40509576601775876,0.6396904985594674,0.5028205085837971,0.6251364411714952,0.39629072761181305,0.14336549322996728,0.2948997817027177,116.0,left
0.05586513726913722,0.5332461599576277,0.5079215587909438,0.24347479681061657,0.3248415111423242,0.2854452888240928,0.2909921563512583,0.43865905534352834,0.6552120169321611,0.5175707605626183,0.6560119196667102,0.44700977664503405,0.15374384279570563,0.3037689004490538,117.0,left
0.12625614642058736,0.5371573755294925,0.5063686599577792,0.232957023866474,0.4129503994559869,0.2518643260892901,0.2720726995736733,0.4004628507198973,0.6130809749510036,0.5097619008279803,0.6520151790371962,0.46215045827107915,0.1476647725332061,0.2948997817027177,118.0,left
0.17094868177754563,0.5232504634532216,0.5094750492047986,0.22399710980078424,0.4118890901441645,0.1809684192572405,0.25585700266927347,0.3599568005993419,0.5631933961765299,0.4893706316815649,0.6389389615115757,0.4348978079672019,0.13980704062042992,0.28713903890082904,119.0,left
0.12290500415959116,0.5280306541311877,0.5100962087379681,0.24152747321224588,0.4055192127302405,0.14552224223632493,0.25225256136642926,0.3206012651251555,0.5088680818721016,0.4646428512416332,0.6334909986872113,0.4348978079672019,0.14010404888330186,0.3021052809365692,120.0,left
0.0938532603958322,0.5262927039193226,0.5020193600637306,0.24230640265177605,0.42781277290748676,0.19589368633780424,0.27117201814401426,0.3113442507327093,0.48447953722556747,0.46507658498719806,0.613512829274514,0.43754739121284025,0.14010404888330186,0.28991103435775756,121.0,left
0.11173240224829328,0.510647014035932,0.5032616791303113,0.2247760392403162,0.37154922857912,0.25932518323519105,0.29459488207060147,0.3715280685903508,0.5454551212358112,0.48850316419111195,0.5997089255006429,0.42694905823028684,0.13921415340367194,0.27328117280952924,122.0,left
0.15418871505514886,0.5145582296077968,0.5045045897773388,0.2286714282748452,0.35562554581580486,0.2873105031102057,0.3405416440783249,0.4525489850347455,0.6419072551274922,0.5080269658467351,0.6113325373976242,0.4405761041610532,0.1438104409697818,0.31762676654035005,123.0,left
0.1653634446764798,0.5136892545020348,0.4895932114954462,0.23957940777638953,0.392781479444551,0.3059697515532065,0.3954952203840527,0.45023473143617565,0.6374737419905685,0.49674658383040615,0.606247034263454,0.4394401566106918,0.13980704062042992,0.32594275291027586,124.0,left
0.10167472004700784,0.50456253310373,0.4743706618662795,0.22516550395992851,0.32908674839043783,0.26678959316985384,0.37387371931678715,0.38773225187922833,0.5376943620494643,0.45987012772426006,0.5840899564079383,0.41975856789881405,0.12631575083940483,0.24833743608386882,125.0,left
0.05474808984909885,0.5110815015888139,0.4784093819937425,0.21542666045501413,0.289808196138047,0.15857874224202106,0.27657610672337896,0.3240748495733712,0.4745020214711886,0.43991341848284016,0.5800945992122148,0.4242994749846467,0.12275786288441726,0.2355879459365866,126.0,left
0.0905021181348431,0.5189047603281356,0.49673832086968694,0.22750303411570094,0.3312093670149068,0.14925267080854354,0.25225256136642926,0.27662163055729394,0.47339153198979744,0.45813519274301484,0.5913543679852094,0.4311137187288594,0.13002214292588476,0.2865859065248486,127.0,left
0.12625614642058736,0.5284659692796616,0.51102853961841,0.236852412901003,0.3779191059930511,0.2574599689490853,0.29910000480380816,0.29861365189204747,0.5399111186174892,0.47158341732638576,0.6040681258206355,0.43679057336505345,0.13891770979523432,0.2799335396674074,128.0,left
0.09608948294593489,0.5206427105400007,0.5051257493107499,0.22828196355492736,0.3779191059930511,0.276119217392079,0.3027027305231549,0.364585307795565,0.5698436658823454,0.44989177310372064,0.5829998104694933,0.43679057336505345,0.13358059553542123,0.2572065548297715,129.0,left
0.09161916555488148,0.5119513042901698,0.4973594804030981,0.22789249883531504,0.36305673254155124,0.23693905900872636,0.31171126040536734,0.40393643516810585,0.5498886343727278,0.43774474975636757,0.5648380898097027,0.43035545932341535,0.12468502866607167,0.2843670434443304,130.0,left
0.14748643053403754,0.5228159759003397,0.5076109790243581,0.23763134234022942,0.4171976582462733,0.31716103727278977,0.37657747918996876,0.3750016530385665,0.5831484276861474,0.4616058888649377,0.5968037142433644,0.4394401566106918,0.13031858653432238,0.3009969049921253,131.0,left
0.14748643053403754,0.5267271914722045,0.5100962087379681,0.2294510995515573,0.4575375198104865,0.3973830155368532,0.3828839647824971,0.3449075400584718,0.6097579512946112,0.47809190198443474,0.6276791927385794,0.46820644261014266,0.13980704062042992,0.2971165335911792,132.0,left
0.07262510399240085,0.5123857918430517,0.4911461103286108,0.2228279738041561,0.3811030339293424,0.2817148602504176,0.2972969263602856,0.3553238853014733,0.5853651842550391,0.4741874721172863,0.6218673867902318,0.4897807967201686,0.1408448755770042,0.3198456296208718,133.0,left
0.07485919883248471,0.5019556077857636,0.4874185615484219,0.2325675591468599,0.3280254390786155,0.2182833633544803,0.28108122945588576,0.3703731458423434,0.6097579512946112,0.4793922770610237,0.6077010233261664,0.4878880313220204,0.13758343123033878,0.3497781136919258,134.0,left
0.1396649708828619,0.5067357984637297,0.5045045897773388,0.23646294818108693,0.4246288449720197,0.3824613012450442,0.3747744007464462,0.4074100196163215,0.6707335353048478,0.4811288643611302,0.6084273261403439,0.47577606264418826,0.13758343123033878,0.3680715947526352,135.0,left
0.17988718884964072,0.5323771848515264,0.5104067885047936,0.24386426153053264,0.48832357602613286,0.44403113664362337,0.3981989802572379,0.391205836327444,0.6075411947265792,0.45509823036631936,0.6022516770677289,0.48145435883833443,0.13758343123033878,0.3697331030726261,136.0,left
0.20893893261339969,0.5636677370230512,0.5153772479320118,0.26762754413199197,0.44904502377291067,0.29477491304486847,0.31531570170821155,0.3252341804239265,0.5509991238532592,0.44685481072702515,0.6113325373976242,0.5132479162280461,0.13862126618691306,0.362527603839208,137.0,left
0.20111747296222404,0.5554099907308476,0.5284251476141542,0.27541906403853744,0.4320600316977732,0.2873105031102057,0.2981993233741491,0.3252341804239265,0.5986699460588412,0.4759224070985315,0.6418455562026448,0.5408782546771338,0.14158626692514087,0.3713967225851107,138.0,left
0.17877014142872838,0.5262927039193226,0.5278039880809846,0.26334269037784885,0.4575375198104865,0.42350312112576205,0.38828805336186534,0.40972427321398186,0.6031034591957578,0.47678987458898625,0.6342173015013906,0.5211966659649612,0.14173477105663412,0.38303783678794545,139.0,left
0.1530716676351105,0.5328116724044065,0.5116496991518229,0.25048738727793385,0.42144289549438696,0.40671263975762884,0.41261159871811515,0.4282427101014221,0.560976639608505,0.4537962029708691,0.604794428634813,0.4837248123811033,0.13847276205541892,0.3730603420975953,140.0,left
0.12067090931951441,0.5249892412603394,0.5010876207637356,0.22516550395992851,0.35031899925586174,0.2574599689490853,0.31531570170821155,0.33333627206836525,0.5388048515299886,0.449458039358154,0.5928069736138504,0.49583678105893547,0.1346184304919955,0.3497781136919258,141.0,left
0.15642493760525866,0.5041280455508481,0.5041940100107549,0.2290608929944593,0.37685779668122876,0.24813389751560777,0.2909921563512583,0.29745432104239455,0.5598661501271067,0.4529287354804161,0.5964398711193795,0.5162766291765539,0.1346184304919955,0.3647443557276695,142.0,left
0.22010940681641245,0.5284659692796616,0.5141349288654311,0.2691861448482342,0.447981692919754,0.401120549688045,0.4063051131255868,0.423614202905199,0.6374737419905685,0.474620379703083,0.615691737717615,0.4788047755926961,0.1369905440135799,0.41130881253900853,143.0,left
0.2212285819456099,0.5497608249467802,0.5206588787065023,0.2808730537893105,0.4416138370471643,0.5149234906869182,0.47567645464339847,0.5196755636862704,0.6940158128638885,0.49631202392574814,0.6342173015013906,0.44511701124688585,0.14114188383987614,0.42350305911782016,144.0,left
0.1988833781221402,0.5471530720338986,0.521901197773083,0.27230260444323484,0.4299353915319557,0.4477615652172986,0.4558546008526534,0.468753168323623,0.6718398023923484,0.4841658267378257,0.6273153496145962,0.46517772966163484,0.1466269375766327,0.4090899494580569,145.0,left
0.23351823127782012,0.5475875595867805,0.528735727380738,0.273081533882765,0.44585907429527794,0.3488803385102415,0.438739938102092,0.4224548720546508,0.6430177446088905,0.45813519274301484,0.6131489861505308,0.48183204698325177,0.14647899809968834,0.41851431177243015,146.0,left
0.2592167050723049,0.5358539128705093,0.532774447508201,0.26334269037784885,0.42781277290748676,0.3283558757796712,0.40270238740624364,0.40972427321398186,0.6130809749510036,0.45119380049916913,0.606247034263454,0.4731264793985499,0.13906621392672758,0.4323721778637264,147.0,left
0.2055856626432515,0.5271616790254239,0.5191053882928891,0.26412161981707527,0.43630526894588684,0.36007162422836814,0.36126246371522797,0.39814859712132744,0.572064644844275,0.456399431602339,0.6124226833360691,0.46820644261014266,0.13817631844709766,0.4246114350618342,148.0,left
0.195530108151992,0.5541065280718644,0.518484228759478,0.2976237459237545,0.47239787172064496,0.401120549688045,0.4180191184644855,0.4837980207619452,0.6297129828042216,0.4672460798731013,0.6396652643257532,0.4848607599314647,0.14929605936097268,0.43348055380817385,149.0,left
0.23351823127782012,0.5754013837393224,0.5240758477201055,0.30502505927289647,0.47770643982274663,0.45335365528688243,0.457659394879677,0.5335654933765852,0.6873613207650422,0.47332000462649404,0.6411178699543942,0.479561593440188,0.15166817288255796,0.4262750545743188,150.0,left
0.22346267678656062,0.5549755031779657,0.5200371275926425,0.280482847231907,0.4394891968813539,0.4626832795091147,0.4153153585913003,0.4282427101014221,0.5920196763538854,0.449458039358154,0.5953497251809345,0.4307345890262848,0.13936265753504973,0.3774938458745183,151.0,left
0.19999829783302658,0.5393306408898315,0.5169307383458666,0.2824309126680671,0.3757964873694064,0.3675324813742762,0.3864866905018438,0.3715280685903508,0.5321503594311423,0.43514152112489946,0.582637350779299,0.43868333876320165,0.1356562654485689,0.3824825932199083,152.0,left
0.19217896589100292,0.5328116724044065,0.51102853961841,0.294896751048368,0.43842788756953155,0.38059253416872707,0.39459453895439367,0.4120385268125446,0.6008867026277329,0.45509823036631936,0.6080634830163607,0.4943231453636585,0.1414383274481974,0.41629755988396866,153.0,left
0.1675975395174305,0.5293349443854236,0.5191053882928891,0.2832098421072935,0.5615721124296371,0.4496232267146638,0.3990996616869005,0.34838112450668746,0.5676269093134536,0.46030386146948743,0.604794428634813,0.47123371400069836,0.13936265753504973,0.38303783678794545,154.0,left
0.11731763934936623,0.5323771848515264,0.525939917900546,0.2695756095678483,0.4745204903451139,0.34701157143391725,0.3567573409827247,0.2951400674438318,0.4667412622848417,0.4464210769814585,0.5909919082950168,0.4114306884590295,0.13446992636061772,0.3353650040325924,155.0,left
0.10726208485723987,0.5202082229871188,0.5020193600637306,0.2687966801286219,0.3025479509650708,0.23880427329483922,0.3270279914636056,0.34838112450668746,0.5088680818721016,0.4438178483503279,0.5909919082950168,0.4159730371028143,0.13432198688367425,0.3580919888697913,156.0,left
0.1743019517476938,0.5219470007942384,0.5013982005305611,0.27658745819737796,0.36730399133100633,0.2873105031102057,0.3504508553901964,0.38773225187922833,0.6031034591957578,0.4559656978571116,0.5960760279951121,0.45268807283888535,0.14114188383987614,0.4035480697371163,157.0,left
0.21229220258354786,0.5480220471396606,0.5358808367552221,0.2832098421072935,0.4851376265485001,0.3339550714282211,0.37837884204999384,0.4282427101014221,0.6396904985594674,0.4702830422497968,0.6026155201919963,0.4689632604576328,0.14796178079607802,0.42571981100628165,158.0,left
0.21899448710553315,0.5610599841101696,0.5470640746764772,0.2917802914530654,0.45222895170920907,0.34514990993655914,0.3720723564574655,0.468753168323623,0.657428773500186,0.47332000462649404,0.613512829274514,0.47691201019454965,0.14974044244635376,0.43680779283313953,159.0,left
0.23910559608891901,0.5645367121291525,0.544578844962869,0.31710143293358506,0.4320600316977732,0.373131677022819,0.3675672337242588,0.41319344956055915,0.5964531894908092,0.45509823036631936,0.6182344892847009,0.4825888648307437,0.1481097202730215,0.4373609252091164,160.0,left
0.23575232611877084,0.5910470736227129,0.5517239543371097,0.33034694259059805,0.45966013843495546,0.3264906614935583,0.3702709935974404,0.3900465054768887,0.542127875186388,0.4438178483503279,0.6080634830163607,0.472369661551058,0.14588611088293035,0.44900203941195116,161.0,left
0.23799067637803262,0.5888738082627132,0.5523457054509695,0.3147646446152983,0.4511676423973867,0.2873105031102057,0.3648651894345747,0.4722223446692908,0.6008867026277329,0.4620396226105026,0.6040681258206355,0.4761551923470577,0.1427726060132084,0.4501104153559652,162.0,left
0.19217896589100292,0.5323771848515264,0.5452005960764854,0.3034672003941399,0.42569015428384205,0.3022357701907694,0.3468464140873522,0.47569592911750647,0.6385800090780691,0.473752912212289,0.6146015917791701,0.5295231038467936,0.14158626692514087,0.43181693429568924,163.0,left
0.1307264638107739,0.5197737354342369,0.5312209570945896,0.30931065486452525,0.4097664715205198,0.29477491304486847,0.30000068623347076,0.3773159066362268,0.5742814014122999,0.4577006328383568,0.6109700777074298,0.5359582178884317,0.14217971879644953,0.42738343051876626,164.0,left
0.1675975395174305,0.5575832560908474,0.5166201585790393,0.31398497333828246,0.42038158618173327,0.30037055590465656,0.2972969263602856,0.3495360472546949,0.5033283016476844,0.43991341848284016,0.5884491567279309,0.44852485389796826,0.13535982184024764,0.42073106366089164,165.0,left
0.2279308664675952,0.5693177304023731,0.5305997975611785,0.32060809908568366,0.44904502377291067,0.3022357701907694,0.3279286728932682,0.4016221815695431,0.49334656349941497,0.43991341848284016,0.5873590107894859,0.42694905823028684,0.13046709066570017,0.39800407882368916,166.0,left
0.22458185191575808,0.5623642743644073,0.557937324411597,0.3287883418743558,0.4373665782577092,0.26119395031005865,0.31351433884818647,0.4259284565028594,0.5598661501271067,0.44989177310372064,0.6040681258206355,0.4844816302288901,0.13476636996893898,0.37860222181896575,167.0,left
0.19999829783302658,0.5627987619172892,0.554520355397992,0.31943896308905373,0.4065805220428871,0.26119395031005865,0.3108105789750013,0.4120385268125446,0.6230584907053753,0.456399431602339,0.6026155201919963,0.49697272860929687,0.1399555447518086,0.3752770939860568,168.0,left
0.23799067637803262,0.5684479277010173,0.5377449069356608,0.3186600336498273,0.43842788756953155,0.34514990993655914,0.3720723564574655,0.39930792797188275,0.572064644844275,0.45509823036631936,0.5989826226864654,0.4825888648307437,0.14010404888330186,0.4057648216255778,169.0,left
0.22010940681641245,0.5575832560908474,0.5293568869141492,0.3245034881202127,0.4416138370471643,0.3544724285798253,0.390091131804688,0.35879746974968896,0.4678475293723423,0.4312370912577492,0.5891754595421084,0.4553376560845237,0.13105997788245904,0.4246114350618342,170.0,left
0.10614503743719439,0.5297694319383055,0.5141349288654311,0.29645535176461024,0.3779191059930511,0.26678959316985384,0.33603652134511464,0.28819510259822323,0.40022167565714994,0.4004345599049959,0.5568473754182541,0.4031042505771971,0.12038574936283286,0.35365848509286835,171.0,left
0.10614503743719439,0.518034957627119,0.514445508632015,0.2695756095678483,0.35244161787950645,0.24253470186706494,0.3108105789750013,0.2557889400721862,0.38691902504900355,0.3947943688968305,0.5448599203972897,0.3981842137887881,0.1168272967532964,0.29212778624621905,172.0,left
0.1988833781221402,0.5458496093749154,0.5337061868081978,0.2933388921696114,0.39384278875637335,0.27238523602964193,0.31531570170821155,0.2615745740672466,0.3636367474899629,0.3874192429074199,0.546312526025929,0.43565462581469383,0.117716627578492,0.337028623545077,173.0,left
0.21676039226457533,0.5710556806142382,0.5355702569886365,0.3167119682136672,0.4267514635956644,0.26678959316985384,0.304504093382473,0.25231535562397767,0.3192910601372958,0.3774408882868787,0.5306935569332243,0.43338417227192316,0.11534451405690671,0.3802658413314468,174.0,left
0.14078201830290027,0.5462840969277973,0.5346379261081928,0.29294942744969354,0.42781277290748676,0.2742504503157548,0.3126136574185274,0.30671574353648623,0.3824834007155644,0.39132367277490765,0.5299672541187626,0.42089307389122155,0.11564152231977864,0.3580919888697913,175.0,left
0.10502799001715601,0.524553926112203,0.5318421166277592,0.2906118972942249,0.4225042048062093,0.28917571739631853,0.3297300357525863,0.391205836327444,0.513305817402923,0.4078096858940672,0.5495815804071924,0.43149140687377674,0.12097863657959174,0.34478936634696566,176.0,left
0.1832404588197818,0.5454151218220336,0.5271822369671266,0.33268447274637225,0.43524395963323315,0.24999911180317724,0.31171126040536734,0.3668995613941277,0.5388048515299886,0.4151848118834778,0.5681071441912504,0.4159730371028143,0.12320224596968288,0.36862472712861205,177.0,left
0.2435737857699536,0.5571487685379672,0.5442682651960418,0.3319048014693564,0.4437364556716332,0.26678959316985384,0.32522491302008305,0.3391197020125958,0.5454551212358112,0.4347077873796721,0.5906280651707494,0.4424688695592014,0.13046709066570017,0.4052095780571108,178.0,left
0.24692705574009466,0.5636677370230512,0.5660141730858328,0.30463559455328415,0.4225042048062093,0.31902625155890263,0.38468532764252217,0.4629653302768446,0.6430177446088905,0.45813519274301484,0.6091536289548056,0.5280094681515166,0.14484827592635607,0.44900203941195116,179.0,left
0.27262552953371255,0.6045186705508474,0.5582479041781809,0.34515031112667316,0.43099670084377806,0.2929096987587556,0.3702709935974404,0.5879658812899962,0.7006660825688442,0.45206126798962387,0.6127851430262634,0.5473133687187719,0.15033389431754696,0.4484467958434841,180.0,left
0.24022477121810937,0.6066919359108471,0.5489281448569177,0.39150774033326563,0.4437364556716332,0.23880427329483922,0.29459488207060147,0.491900112406384,0.6075411947265792,0.42082500289164315,0.5949872654907402,0.4886448491698072,0.13965910114348645,0.39079857958983766,181.0,left
0.15642493760525866,0.5310728945972887,0.5582479041781809,0.3564470135103459,0.42038158618173327,0.24999911180317724,0.2909921563512583,0.3206012651251555,0.47006850833427194,0.3800441169180093,0.553940780727185,0.44814572419539545,0.12335075010117613,0.3414642385140567,182.0,left
0.16983163435750726,0.5154280323091527,0.554209184050718,0.3069731247087528,0.43630526894588684,0.27798443167819187,0.32882935432292726,0.3263891031719339,0.4689580188528737,0.36876373490201964,0.5423171688302038,0.4458752706523299,0.1181615753183074,0.3547668610373158,183.0,left
0.22458185191575808,0.5645367121291525,0.547685825790337,0.3151541093349106,0.4649687065362329,0.29104448447264275,0.33963924706446136,0.41435278041021206,0.5365838725680661,0.3748376596554106,0.5582999810468934,0.4458752706523299,0.12557435949126816,0.39523208336676063,184.0,left
0.19217896589100292,0.5645367121291525,0.5594908148252102,0.34826602888418634,0.4171976582462733,0.3022357701907694,0.3459457326569897,0.3460668709090271,0.4600909925790262,0.3449025957931102,0.5252442106747868,0.4258145522375827,0.12172002792784387,0.35975560838227594,185.0,left
0.18212341139886945,0.5706211930613563,0.5799944036484206,0.3856650277003659,0.44267514635898664,0.3041009844783389,0.3405416440783249,0.2500011020254149,0.36474512577484575,0.3275491151831602,0.4954588781180167,0.40802428736589924,0.11089673062229011,0.3070961394740195,186.0,left
0.2703914346936287,0.627552304025425,0.6175834291200992,0.4261782605987854,0.5583861629520044,0.3115653944130017,0.33423515848579655,0.2789358841549543,0.41019919141152883,0.34099816592596177,0.517616647690426,0.42278583928936975,0.11593796592821537,0.33203987619968345,187.0,left
0.30391136813842223,0.6458057468220346,0.6595217544858265,0.4394230284183127,0.5424604586473478,0.2798496459643047,0.3081085346860206,0.29745432104239455,0.42904795583364574,0.3349242411725708,0.5103522361134392,0.43035545932341535,0.12186796740478734,0.3802658413314468,188.0,left
0.29385581364716273,0.6240764036016948,0.6557936141251908,0.43825537609695786,0.4819516770708674,0.222013791926706,0.2234238932769692,0.2442132639795389,0.38470015728445617,0.31670329307182676,0.4660366969683363,0.4295986414759252,0.10971095618877236,0.3824825932199083,189.0,left
0.31620101747063245,0.6479790121820344,0.6411934071903307,0.46318705285756145,0.45541287964550037,0.19029804347946566,0.17387440555060607,0.17592735447745156,0.3536592317355911,0.3058574709604933,0.4311658612773961,0.4318705365766462,0.09192010477729085,0.32871474836720793,190.0,left
0.27262552953371255,0.6853532176905084,0.6545512950586101,0.4982477796801792,0.42569015428384205,0.2182833633544803,0.21081092209191254,0.10879636772428114,0.2915752694413314,0.2811280382017003,0.38467072197257934,0.39250591759464193,0.08243136836396481,0.2560981788857575,191.0,left
0.2435737857699536,0.6918730137711862,0.6713261519404945,0.5200622550082965,0.4341826503214108,0.2518643260892901,0.25585700266927347,0.127314804610819,0.2494463386566892,0.25726689909279266,0.3432617775188298,0.3576836472564242,0.07931814582146046,0.24002250530953972,192.0,left
0.3173201926007039,0.699695444915255,0.6840640634364998,0.5301913050703106,0.4405525277353419,0.264924378883741,0.28018054802622316,0.23842762998357614,0.2827061319709685,0.26551031873242614,0.34398808033329153,0.3796371310693196,0.08287631610378021,0.2954550252711847,193.0,left
0.358657330278362,0.716209282309153,0.6896556823971292,0.5282432396344561,0.4405525277353419,0.2555947546615158,0.2837832737455699,0.2465297216280149,0.2838145102549845,0.2633408238461836,0.34689398330746535,0.3928843265183879,0.0816902593429294,0.3198456296208718,194.0,left
0.3519550457563767,0.7244670286016959,0.6825105730226451,0.5192833255687663,0.5084904744962273,0.24999911180317724,0.2288296974398385,0.10532498732688822,0.20399016182349072,0.2420829133690816,0.3265526624876802,0.37623072997589446,0.0686433526472845,0.29379140575870366,195.0,left
0.33184393677299084,0.7118644067796609,0.668530342460059,0.5204524615653963,0.578557104505613,0.3507420000075996,0.25585700266927347,0.0787044587950092,0.18070999546096544,0.23991341848284087,0.3265526624876802,0.37736595674742546,0.06730907408238895,0.29379140575870366,196.0,left
0.3262565719627659,0.7001307600633897,0.6694626733405027,0.5157774012541534,0.5668766374482388,0.44029360249243155,0.3855860090721812,0.23263979193770012,0.3070946766175098,0.2694147485995746,0.36287679552415497,0.39780508408591864,0.08213492475552808,0.3059856523375153,197.0,left
0.33295885648387724,0.6905687235169502,0.6651133734464558,0.48889765905739146,0.5403378400228718,0.37686210559650135,0.39279317609437214,0.3252341804239265,0.3968965408042422,0.29240842021769176,0.37958591055530455,0.42089307389122155,0.08851015629913128,0.29822702072768337,198.0,left
0.2983240033281973,0.6844842425847464,0.650513166511594,0.4818858104278618,0.5127397548270238,0.22947464907261406,0.28468567075872997,0.26967666571168536,0.31374705751984067,0.27158341732638647,0.3592438980186241,0.43792652091541484,0.08198670295136701,0.2943466493267408,199.0,left
0.32178838228173134,0.7075178760593221,0.6613852330858183,0.5165563306933798,0.5159216612219808,0.20335809627391654,0.23153174172952262,0.22453770029326137,0.27272650501921447,0.26290709010095625,0.35597484363736065,0.45874405717794886,0.08213492475552808,0.3070961394740195,200.0,left
0.37765351955086857,0.7435894465040676,0.6638710543798751,0.5243471087624396,0.5339699841511134,0.22947464907261406,0.2342337860185033,0.2673624121131226,0.3824834007155644,0.293275887708484,0.37849576461685963,0.479561593440188,0.08776876495099462,0.31541001465188856,201.0,left
0.33184393677299084,0.7266402939616956,0.6411934071903307,0.4818858104278618,0.5042452372481137,0.2705200217435362,0.28828839647807314,0.3159727579289324,0.39467978423535044,0.29154012656780637,0.3596070494259962,0.450038489593247,0.07946636762562154,0.28325866749988293,202.0,left
0.2055856626432515,0.6736195709745765,0.6107483079319955,0.4402019578578429,0.4681526344725313,0.3992517826117208,0.362163145145594,0.25347248242280784,0.25942385441193494,0.24511987574577887,0.30875409323497927,0.38455716785772687,0.06419585153988461,0.20343659878501086,203.0,left
0.13296055865172463,0.6562367584745772,0.5821678704345494,0.42578953771665695,0.43842788756953155,0.4645520465839752,0.3936938575240312,0.13541689625525777,0.21618654534327675,0.23861221724682125,0.30875409323497927,0.3728236081036407,0.06538190830061907,0.15077607428029438,204.0,left
0.22905004159678555,0.6636238744701703,0.5917988011030886,0.4429289527332294,0.47770643982274663,0.4291023167743049,0.3828839647824971,0.127314804610819,0.2827061319709685,0.2685472811091216,0.3665090013127905,0.42846413548322104,0.08539665142941022,0.21895808438879172,205.0,left
0.3631297753777005,0.6953489141949163,0.6477173570314019,0.49123444737567823,0.5828023417537267,0.34328114286169154,0.3162163831378706,0.21412135505025987,0.3447900942652282,0.2911063928222415,0.418815254849342,0.4920512502629375,0.10318750284089173,0.34090899494601956,206.0,left
0.3955305336933037,0.7505429025423727,0.6877910206362419,0.525126038201666,0.6008466215993522,0.30037055590465656,0.26936893970048814,0.30787066628449367,0.4090929243240282,0.3232109515704451,0.43988357020020175,0.5174111351689614,0.1095624520572791,0.3641912233516891,207.0,left
0.3687171401887994,0.7553230932203387,0.6654245447937299,0.509544482063852,0.5594454507224853,0.3339550714282211,0.324324231590424,0.38889158272888125,0.48115229117614433,0.3375274698040389,0.4249909039219588,0.49243037996580696,0.10926600844895784,0.31319326276342707,208.0,left
0.3240224771218152,0.7140376721396606,0.6290778383886302,0.48032795154910524,0.5668766374482388,0.3339550714282211,0.3702709935974404,0.42939763284943666,0.5055450582165761,0.3180044943078446,0.40101668559664105,0.4454961409497553,0.10007428029838739,0.28104191561142144,209.0,left
0.30614546297937295,0.7122980667372882,0.6321836360549611,0.4834436693066184,0.5445871203544925,0.34328114286169154,0.34774881110051226,0.41551211126076026,0.5110848384410005,0.30715867219651294,0.40501204279236624,0.4405761041610532,0.09547827505960971,0.27660841183449847,210.0,left
0.3027921930092319,0.7122980667372882,0.6371540954824191,0.4869495936215351,0.550954976226258,0.45522242236320665,0.381981567769337,0.39352008992510434,0.5033283016476844,0.30195221493357494,0.4180889520348803,0.4784256458898266,0.10111211525496167,0.28769428246929607,211.0,left
0.3195542874407806,0.6888307733050851,0.6182045886535104,0.46747190661170457,0.6061551897014539,0.5354444006272701,0.42342320704385017,0.35300963170291055,0.42128719664729886,0.2789593694752277,0.40828178889080746,0.48751034317710307,0.10051894571098607,0.2926830298142562,212.0,left
0.320669207151667,0.6966532044491522,0.6157187673592137,0.4592909219855468,0.5297247469029998,0.4514919937895243,0.37837884204999384,0.26967666571168536,0.3392460916469062,0.260737595215053,0.3861240193181139,0.44852485389796826,0.08910304351589016,0.26219530217516507,213.0,left
0.26368489475333945,0.700564420021017,0.6312524883356545,0.46552384117554446,0.5042452372481137,0.4608216180117495,0.36306382657525305,0.24768684842774746,0.35033198568616086,0.26551031873242614,0.385033873379669,0.4246786046872213,0.08272809429950367,0.2317075745356405,214.0,left
0.23351823127782012,0.6653618246820336,0.6222427172002849,0.46123898742140135,0.6454337419538518,0.5391748291994958,0.39279317609437214,0.3298626876201496,0.3835917789995804,0.28156177194692766,0.39084567932830083,0.4254354225350081,0.08747232134255789,0.23226176250764752,215.0,left
0.28491517886592277,0.6731859110169491,0.6157187673592137,0.46474491173631804,0.7059425235303252,0.5074626335410102,0.3936938575240312,0.4062506887657662,0.39467978423535044,0.28980519158656115,0.39193582526674575,0.43035545932341535,0.08999265666830336,0.2355879459365866,216.0,left
0.35418914059733453,0.7079531912074586,0.6356017882297014,0.48149560387076384,0.6401251738525744,0.49067215217287696,0.400901024546922,0.3703731458423434,0.38580853556847217,0.27722360833421256,0.4086449402978971,0.4507953074410338,0.08865837810340782,0.24334763314244867,217.0,left
0.3743002495807204,0.6844842425847464,0.6383975977098952,0.47798967955584715,0.5997873338288713,0.5018634378924673,0.4459453895407819,0.2615745740672466,0.33702933507888133,0.2633408238461836,0.410460697333626,0.45987856317035636,0.08984443486414229,0.25332618342882895,218.0,left
0.320669207151667,0.6653618246820336,0.6197580790671235,0.465914047732948,0.5870475790018403,0.4925338136702351,0.46126212059902016,0.25231535562397767,0.3281601976076516,0.2724517109762701,0.39774763121509515,0.4591217453228662,0.09058554388506224,0.2488905684598457,219.0,left
0.2770937192147471,0.6775307865464413,0.6188257481866799,0.4666929771721744,0.5658173496777579,0.45895285093543237,0.42071944717066856,0.331017610368157,0.3691807501082778,0.2841650005783958,0.3995640799680018,0.45685129177980066,0.08954799125570556,0.24722906013942136,220.0,left
0.3083795578194568,0.6805730270125423,0.6415033953764677,0.4744837552412342,0.5732485364035043,0.42164145962839683,0.371171675027103,0.3599568005993419,0.3747226415292175,0.294143355198937,0.415909351874884,0.45760810962758747,0.0945886619071965,0.2538793158048058,221.0,left
0.37653434442079714,0.7023023702328821,0.6573471045388022,0.4853917347427785,0.5891701976254851,0.3507420000075996,0.34955017396053734,0.35763813889913365,0.3813750224315484,0.317570760562619,0.4322553154989457,0.4719919734061424,0.1022981720158116,0.3021052809365692,222.0,left
0.40335199334447935,0.7140376721396606,0.6520654737643117,0.4834436693066184,0.5743078241739852,0.3022357701907694,0.352252218249518,0.34375261731046436,0.3968965408042422,0.325379620297257,0.44496907333437186,0.4844816302288901,0.10185322427599708,0.36585273167168353,223.0,left
0.3307247616438005,0.6762281514830519,0.6269031884416059,0.4651351182934178,0.5488323576026133,0.3694012484505933,0.3567573409827247,0.32291551872371826,0.37915826586265666,0.3136663306951313,0.44387892739592516,0.4871312134745285,0.10051894571098607,0.3619723602707374,224.0,left
0.2581017853614185,0.6479790121820344,0.6057778485045375,0.4557849976706301,0.5562635443283597,0.4645520465839752,0.3693703121677814,0.314817835180925,0.3736142632452015,0.31279886320467654,0.4249909039219588,0.4693423901605023,0.09977755436284941,0.2893579019817807,225.0,left
0.28826844883607095,0.666232454978644,0.6157187673592137,0.46084878086430336,0.5806797231292506,0.4179110310547216,0.35945938527240884,0.2858808490005629,0.3813750224315484,0.3084598734325308,0.41300344890071017,0.44208973985633016,0.09369904875478419,0.27660841183449847,226.0,left
0.36647878992954475,0.6749238612288142,0.6256596862138881,0.46474491173631804,0.550954976226258,0.3152958229852203,0.33243208004227043,0.20254788300933058,0.31596381408787266,0.2793931032204551,0.4093712431120746,0.4405761041610532,0.08865837810340782,0.3458977422909797,227.0,left
0.36647878992954475,0.6627548993644066,0.6222427172002849,0.46396598229678787,0.5329066532971254,0.3488803385102415,0.3207215058710773,0.2002314253599451,0.2694013701663067,0.28720196295509126,0.4304388667463215,0.4761551923470577,0.09414371416738199,0.3802658413314468,228.0,left
0.2871492737068735,0.6544971530718655,0.6244173671473074,0.4620179168609333,0.5881109098550041,0.5074626335410102,0.37657747918996876,0.33217694121780994,0.40022167565714994,0.3401306984351695,0.46676299978279623,0.49243037996580696,0.10259461562413374,0.36585273167168353,229.0,left
0.2692722595635644,0.6584083686440678,0.6206892267866717,0.4624081234180313,0.6199582753824728,0.5317139720535948,0.4288307267902205,0.41319344956055915,0.5399111186174892,0.35661671155466657,0.46240449117998317,0.472369661551058,0.10392889418914475,0.3630828474072416,230.0,left
0.3296098419329141,0.6584083686440678,0.611059479279028,0.4643547051789163,0.5700625869258715,0.3414194813643334,0.35585665955306567,0.40856494236433605,0.5288273357756168,0.343167660811865,0.45114403069009157,0.4606368225758004,0.10170500247172054,0.3713967225851107,231.0,left
0.3564232354374113,0.6436324814616956,0.6244173671473074,0.4643547051789163,0.5307840346734807,0.3022357701907694,0.2909921563512583,0.35300963170291055,0.44345898472580814,0.35141025429206785,0.4802030604324017,0.4750192447966963,0.10289105923257047,0.3730603420975953,232.0,left
0.30502628784930863,0.630594544491526,0.6374652668294516,0.46786211316880255,0.6040325710769849,0.48694172360065124,0.33693720277548067,0.24305613717980634,0.36696188234287064,0.3522777217825208,0.49218982373675324,0.47653288049197506,0.10259461562413374,0.36862472712861205,233.0,left
0.21005385232428608,0.6197298728813561,0.604846700785231,0.4635757757396899,0.6475563605783208,0.5485044534217209,0.37387371931678715,0.16898238963184298,0.3403544699309222,0.3383949372944919,0.4696689027569718,0.4602576928732258,0.09888822353765292,0.34922287012388864,234.0,left
0.21564121713538498,0.6158186573091537,0.5890029916226531,0.45812178598891684,0.5095538053493911,0.45335365528688243,0.34774881110051226,0.20717639020555367,0.3736142632452015,0.34837329191537236,0.4772971574582261,0.4935663275161666,0.1022981720158116,0.3458977422909797,235.0,left
0.320669207151667,0.6414592161016959,0.6253496980277511,0.4698086949296876,0.4564741889573227,0.4048509782602707,0.3468464140873522,0.2673624121131226,0.3913525381859273,0.3531460154327437,0.48892076935520734,0.5427710200749871,0.10793172988394595,0.39079857958983766,236.0,left
0.34301866639431466,0.6692746954447468,0.6461638666175471,0.48071667443123367,0.6220808940061175,0.3694012484505933,0.3747744007464462,0.33333627206836525,0.4146327045484455,0.3527114555277482,0.4718485029169681,0.5113551508301928,0.10570783816663809,0.40632006519361497,237.0,left
0.297204828198133,0.6427635063559318,0.6324948074022352,0.468250836050931,0.6719725393792118,0.3544724285798253,0.36576587086493717,0.41551211126076026,0.4878067832749906,0.3774408882868787,0.47075904869541674,0.47047689615291155,0.10259461562413374,0.3736134744735722,238.0,left
0.2648040698825298,0.6058229608050851,0.6154087791730749,0.45461586167400014,0.5615721124296371,0.4328327453465306,0.37657747918996876,0.4398139780915358,0.5099785713534999,0.38394854678549706,0.4852885635665718,0.49243037996580696,0.10600456410229242,0.35421372866133893,239.0,left
0.268157339852678,0.6353763903600012,0.6129229578790198,0.4620179168609333,0.6072185205546177,0.4925338136702351,0.3954952203840527,0.37268739944000373,0.4179599505978757,0.3531460154327437,0.4711222001025064,0.49697272860929687,0.10585634229801588,0.3647443557276695,240.0,left
0.32849066680284267,0.6827462923728813,0.6272131766277429,0.4717567603658477,0.6857756250602307,0.5205226863354611,0.38918873479152793,0.28819510259822323,0.33592095679399847,0.3349242411725708,0.45513938788581676,0.48296799453361317,0.10200144608015727,0.37250509852955815,241.0,left
0.3620106002485102,0.6675350900423727,0.6256596862138881,0.46902976549046116,0.5987240029757075,0.48507295652433413,0.3864866905018438,0.30208282823861765,0.3802666441475324,0.34967531931082085,0.4769340060511382,0.4939440156610839,0.10214966788431834,0.37416871804204277,242.0,left
0.33184393677299084,0.6245100635593221,0.6175834291200992,0.4624081234180313,0.5254754665713719,0.42164145962839683,0.3990996616869005,0.39352008992510434,0.46563077280345055,0.3704994960426955,0.5034502842263606,0.4965935989067223,0.10318750284089173,0.3813742172754644,243.0,left
0.26368489475333945,0.6106031514830512,0.608573657984973,0.46123898742140135,0.5382152213992271,0.45335365528688243,0.4252245699031718,0.4884265279581683,0.5166288410584485,0.3895879116338943,0.49909177562354756,0.48107522913546497,0.10644922951477476,0.3736134744735722,244.0,left
0.2547485153912774,0.6084315413135606,0.5880706607422095,0.4635757757396899,0.6072185205546177,0.5578340776424966,0.4522518751333102,0.5601860219084642,0.6097579512946112,0.4069413922441836,0.4925529751438429,0.4750192447966963,0.11371379188357444,0.3675163511841646,245.0,left
0.3251416522518795,0.6158186573091537,0.5980115795968857,0.46747190661170457,0.6900208623083444,0.5932838074536235,0.47387509178407683,0.550929007516018,0.6773838050098036,0.41605227937427003,0.5223389994175083,0.4935663275161666,0.11949585388320205,0.3985593223917263,246.0,left
0.37206615473976967,0.6384169756355931,0.6262820289081947,0.46747190661170457,0.6740951580036878,0.5373131677021377,0.48288190608208836,0.43403054814729813,0.5643038856579281,0.41084664827076267,0.5630216410570803,0.5249807552033037,0.12201647153616513,0.4501104153559652,247.0,left
0.36536387021865835,0.6349410752118647,0.6138552887594635,0.44643636072311743,0.5658173496777579,0.4925338136702351,0.4900907886884802,0.4178263648584206,0.445675741293833,0.393492341501382,0.5499454235314598,0.5344445821931529,0.122609358752924,0.46119628599076634,248.0,left
0.30055809816828116,0.6075609110169502,0.5890029916226531,0.4308533209100265,0.5180442798456255,0.498133009318785,0.48738702881529505,0.5196755636862704,0.504434568735185,0.39566183638728525,0.5110785389276167,0.5189247708642402,0.12068219297126959,0.43680779283313953,249.0,left
0.22905004159678555,0.6027807203389841,0.5877606725560724,0.4437093658477309,0.5594454507224853,0.5037322049673278,0.47838021451658364,0.5150470564900473,0.5487823672852343,0.4091108871300868,0.5121679931491663,0.5174111351689614,0.117716627578492,0.4090899494580569,250.0,left
0.22346267678656062,0.6110384666311877,0.5771974110070897,0.447994219601874,0.5721852055503405,0.47388167080620036,0.4819829402359268,0.4421326397917369,0.5011073226857619,0.4073759521488416,0.5241554481704149,0.5158974994736845,0.11475162684014872,0.36141922789476055,251.0,left
0.2044707429323651,0.6097341763769499,0.5672564921524135,0.4351381746641696,0.5371559336287461,0.45522242236320665,0.45135290928714866,0.40856494236433605,0.4833690477450361,0.39696386378273374,0.5059930357934466,0.5102192032798332,0.10748734679868122,0.3165183905959026,252.0,left
0.15754198502529704,0.6106031514830512,0.5893129798087902,0.4242301951626253,0.5222935601772463,0.42537188820062255,0.371171675027103,0.37963016023478957,0.4800460240886437,0.3861172155119714,0.5081726359534429,0.5518557173622636,0.10526317275404029,0.3170736341643732,253.0,left
0.17653604658864452,0.6205988479871198,0.6036031985575132,0.42072427084801234,0.5679399683022268,0.4309710838491725,0.3486494925301713,0.3622710541979046,0.49224029641191436,0.39826506501875336,0.543043471644383,0.5987885148206562,0.11415873962338985,0.3375838671131106,254.0,left
0.24916115058017851,0.6423298463983063,0.5939734510501111,0.4409823709723444,0.6284487498787072,0.5186539192591368,0.4306320896495386,0.40393643516810585,0.555432636990183,0.43080335751218435,0.5582999810468934,0.5806205618037605,0.12053368883977633,0.35088648963637326,255.0,left
0.30614546297937295,0.6605816340040676,0.5964580891832725,0.46396598229678787,0.5955420965807505,0.5373131677021377,0.48738702881529505,0.4398139780915358,0.566520642225953,0.4368764561061447,0.5575736782327159,0.5283885978543861,0.12053368883977633,0.35421372866133893,256.0,left
0.297204828198133,0.6562367584745772,0.5933522915167,0.4370862401003297,0.5849249603773714,0.5242531149076868,0.48738702881529505,0.4317162945496378,0.47782926752061883,0.39566183638728525,0.5492191207169981,0.47804795774490927,0.11564152231977864,0.33037625668719883,257.0,left
0.268157339852678,0.6571057335803392,0.5778197537013963,0.41410262877558246,0.6348206488339727,0.5634332732910394,0.5189194567779367,0.4374997244938754,0.4534365004801799,0.37874208952256083,0.5357790600673944,0.43792652091541484,0.1114901824934833,0.28991103435775756,258.0,left
0.2815661643149525,0.681008342161018,0.5983227509441598,0.4390343055361843,0.5912928162499611,0.5932838074536235,0.5882873671280429,0.5046307112470458,0.5676269093134536,0.4234274053633431,0.546312526025929,0.42732818793285965,0.11697580088478965,0.28104191561142144,259.0,left
0.31620101747063245,0.6762281514830519,0.6135441174121894,0.4394230284183127,0.5902335284794731,0.6249960031121091,0.609910583778813,0.5601860219084642,0.6651895326865329,0.4577006328383568,0.5572098351084485,0.4288418236281384,0.12379569784099154,0.3054325199615384,260.0,left
0.3553083157265249,0.6636238744701703,0.5977015914107486,0.433190109228315,0.6804670569589533,0.6399248229828771,0.5675665474911398,0.5578717683099015,0.6640790432060015,0.4568331653475646,0.5510355694699047,0.43868333876320165,0.1234986895781196,0.33813699948909104,261.0,left
0.35307422088644813,0.6892644332627125,0.6001862295439082,0.45344820935264707,0.6401251738525744,0.5429052577731781,0.5540546104599215,0.5601860219084642,0.646340768264416,0.45206126798962387,0.5721025013869738,0.48221117668582636,0.12512997640588708,0.3680715947526352,262.0,left
0.34413358610520106,0.6983911546610173,0.6160299387064878,0.45461586167400014,0.5636947310541132,0.4626832795091147,0.5405426734287033,0.5115734720418317,0.6529952603632623,0.4555319641115467,0.6044305855108298,0.5098415151349158,0.1297256993175635,0.3819294608439314,263.0,left
0.30726038269025935,0.6710126456566101,0.6042255412518198,0.4409823709723444,0.6284487498787072,0.5018634378924673,0.47567645464339847,0.4074100196163215,0.6153019539129261,0.45249500173484947,0.5938971195522953,0.47577606264418826,0.12824291662117382,0.35975560838227594,264.0,left
0.23910559608891901,0.6597126588983055,0.5731592824603169,0.4370862401003297,0.6613594462593397,0.5111930621132359,0.438739938102092,0.34838112450668746,0.5210665765892699,0.4290675963715067,0.5644742466857195,0.44133292200884,0.1221644110131086,0.3098660237384614,265.0,left
0.22346267678656062,0.6679704051905091,0.5629083754195037,0.42812632603463996,0.5955420965807505,0.4832041894494665,0.47027236606473366,0.30787066628449367,0.4246102203036912,0.39305860775615464,0.5419533257059364,0.4171089846531757,0.11282446105849431,0.2544345593732764,266.0,left
0.21340712229443426,0.6701436705508481,0.5719169633937362,0.41916641196925575,0.5881109098550041,0.4999946708161431,0.4891883916746167,0.24768684842774746,0.3481152291172691,0.36659506617554705,0.5230653022319682,0.38380035001023494,0.10259461562413374,0.21895808438879172,267.0,left
0.23575232611877084,0.6684040651481364,0.5865171703285963,0.42578953771665695,0.5753711550279732,0.5074626335410102,0.4891883916746167,0.2685195389128552,0.32261619499020355,0.36702879992077264,0.5056298843863569,0.3747163735017871,0.100370723906825,0.23503270236854945,268.0,left
0.29497073335804913,0.666232454978644,0.5880706607422095,0.4226723362838687,0.5467097389781372,0.5149234906869182,0.5198218537910968,0.3564832161511262,0.33148533246055933,0.375271393400638,0.5038134356337327,0.382286714314958,0.10674567312321148,0.2699560449770537,269.0,left
0.30391136813842223,0.6649281647244063,0.5806155631818317,0.41527028109724107,0.5594454507224853,0.4962642422439174,0.5135153681985685,0.40972427321398186,0.39467978423535044,0.3952281026420579,0.5321461625618635,0.382286714314958,0.11519657457996324,0.27106442092106775,270.0,left
0.2860343539959871,0.6714463056142375,0.5924199606362563,0.42384147228049684,0.5987240029757075,0.5093242950383683,0.5090102454660652,0.468753168323623,0.5221728436767705,0.42993506386229896,0.5593887435515494,0.4019683030268357,0.12320224596968288,0.2671840495201252,271.0,left
0.2860343539959871,0.6744885460803385,0.5986327391302968,0.4324111797887831,0.6167723259048401,0.5354444006272701,0.5324313938091514,0.5601860219084642,0.6341464959411454,0.4529287354804161,0.5619314951186336,0.42202902144158294,0.12631575083940483,0.3015521485605923,272.0,left
0.3094987329495211,0.6753575211864415,0.5939734510501111,0.4308533209100265,0.5573228320988406,0.4757433323035656,0.504505122732855,0.541667585021024,0.6407967656469609,0.4559656978571116,0.5564835322942692,0.4031042505771971,0.12690863805616281,0.3076492718499999,273.0,left
0.2804469891848882,0.6723152807203387,0.5995650700107404,0.4296841849133983,0.5668766374482388,0.4496232267146638,0.4630634834583418,0.35416896255346586,0.5077618147846081,0.4312370912577492,0.5405007200772971,0.3796371310693196,0.1196443580146962,0.2527709398607918,274.0,left
0.2435737857699536,0.6736195709745765,0.5865171703285963,0.43591710410369977,0.6507423100559535,0.513054723610594,0.4675686061915485,0.14930682594647493,0.304877920048618,0.3817790518992563,0.5110785389276167,0.3792587221452788,0.10407711599330494,0.21119734158690306,275.0,left
0.2826810840258389,0.6805730270125423,0.5706746443271555,0.4366960335429262,0.6167723259048401,0.44216236956875576,0.4459453895407819,0.09606576888361928,0.22394730452962364,0.3618223426578364,0.5001812298450972,0.3796371310693196,0.09977755436284941,0.2100889656424556,276.0,left
0.2871492737068735,0.6783997616525426,0.5768874228209526,0.42734739659541354,0.5360926027747581,0.3488803385102415,0.41711672145132184,0.1886579533181134,0.3115303009509489,0.38828671039821216,0.5128949876805233,0.37660913889963865,0.1095624520572791,0.22339264376174484,277.0,left
0.22234775707567422,0.6644928495762716,0.5737804419934864,0.4246204017200288,0.5435237895005045,0.3843229627424023,0.4567569978658135,0.2627317008660768,0.3636367474899629,0.39869879876398073,0.5118048417420784,0.3928843265183879,0.11178662610192003,0.22006646033280575,278.0,left
0.21005385232428608,0.6588436837922043,0.5616654647722328,0.42812632603463996,0.5753711550279732,0.38059253416872707,0.49819863714032664,0.28703797579939305,0.35033198568616086,0.386550949257197,0.49909177562354756,0.4182434906455832,0.10852461710070482,0.22006646033280575,279.0,left
0.23463740640788444,0.6684040651481364,0.5796832323013881,0.4246204017200288,0.5828023417537267,0.3694012484505933,0.4819829402359268,0.3449075400584718,0.42239346373479236,0.39088993902934277,0.513258139087613,0.44398250525447835,0.11534451405690671,0.2616400586066945,280.0,left
0.2547485153912774,0.6714463056142375,0.6045355294379569,0.42072427084801234,0.5318473655266374,0.42164145962839683,0.4711713319108952,0.3900465054768887,0.4800460240886437,0.4060739247533913,0.5444960772730223,0.46631367721199446,0.12246085462154621,0.2987801531036638,281.0,left
0.26592324501260123,0.6623212394067792,0.5958369296498613,0.42228361340174025,0.4787697706759104,0.4309710838491725,0.5324313938091514,0.4004628507198973,0.49002353984388236,0.4321045587482022,0.5543046238511682,0.48107522913546497,0.12142358431940625,0.2943466493267408,282.0,left
0.25028032571024283,0.6575393935379665,0.5775085823543638,0.42345126572339886,0.5414011708768598,0.4496232267146638,0.6027017011731246,0.4363448017458609,0.566520642225953,0.45509823036631936,0.553940780727185,0.4943231453636585,0.12201647153616513,0.27937829609893683,283.0,left
0.22569677162664448,0.6414592161016959,0.5821678704345494,0.4203355479658857,0.6252628004010745,0.5391748291994958,0.5982000096076199,0.4120385268125446,0.5543221475096516,0.4360089886156917,0.5532144779127233,0.49886549400744506,0.12142358431940625,0.26441205406362656,284.0,left
0.20223239267311044,0.6210341631355938,0.5722269515798732,0.41527028109724107,0.5966013843512386,0.5279835434813691,0.5414416392748649,0.27662163055729394,0.42239346373479236,0.39869879876398073,0.5365053628815719,0.4844816302288901,0.11697580088478965,0.23226176250764752,285.0,left
0.23351823127782012,0.6405902409955928,0.5483069853235065,0.41332369933635604,0.5594454507224853,0.47388167080620036,0.5198218537910968,0.23495404553536758,0.39911540856964933,0.38828671039821216,0.5219758480104186,0.4719919734061424,0.11593796592821537,0.234478514396109,286.0,left
0.28491517886592277,0.6736195709745765,0.5728492942741799,0.42345126572339886,0.5774937736516179,0.4999946708161431,0.553152213446058,0.3553238853014733,0.47228526490229683,0.4091108871300868,0.5401382603871028,0.5022718951005736,0.11994080162301746,0.2843670434443304,287.0,left
0.2826810840258389,0.6449367717159333,0.6129229578790198,0.43163225034955666,0.5870475790018403,0.4944025807465593,0.5855870384225632,0.4467611469879671,0.5443446317544129,0.44555360949100553,0.5790044532737681,0.5420142022274952,0.12498147227450929,0.3098660237384614,288.0,left
0.28938336854695734,0.6179919226694928,0.6070213507322553,0.42150320028723876,0.5902335284794731,0.49067215217287696,0.5936948868744132,0.42939763284943666,0.606430705245188,0.4585689264882422,0.5880853136036635,0.5348222703380703,0.12750208992747147,0.29822702072768337,289.0,left
0.33407803161394156,0.6666661149362714,0.601739719957763,0.42656846715588337,0.5690032991553906,0.5037322049673278,0.5846846414086997,0.4212955412049979,0.5776044250686923,0.44295038085953564,0.5717400416967813,0.5132479162280461,0.12527791588283055,0.29212778624621905,290.0,left
0.3675979650587351,0.6870928230932201,0.6107483079319955,0.4402019578578429,0.5318473655266374,0.48694172360065124,0.5819808815355145,0.4421326397917369,0.4966738095488381,0.4420829133690827,0.5510355694699047,0.5234671195080249,0.12512997640588708,0.30321576807307693,291.0,left
0.311732827789605,0.627552304025425,0.5803043918345576,0.42189340684464227,0.5477690267486253,0.48507295652433413,0.5927924898612531,0.4270833792508739,0.5088680818721016,0.43557525487012505,0.5179797990977981,0.5227103016602381,0.1211265760565352,0.2910194103017716,292.0,left
0.23128413643774337,0.6045186705508474,0.5641506944860843,0.4028044427169384,0.5891701976254851,0.54104359627582,0.6063078580594699,0.41435278041021206,0.5121953279215319,0.40303696237669584,0.5009075326592765,0.47766882804233646,0.11134167836210551,0.28713903890082904,293.0,left
0.2581017853614185,0.6332031249999996,0.6032932103713762,0.4226723362838687,0.5690032991553906,0.5018634378924673,0.563963821771793,0.3807894910844425,0.42017670716676747,0.38828671039821216,0.5088989387679046,0.45571534422944104,0.10585634229801588,0.28603066295681145,294.0,left
0.2592167050723049,0.6227721133474589,0.5949057819305548,0.42345126572339886,0.5445871203544925,0.4141806024824959,0.5009023970135118,0.2789358841549543,0.342571226499814,0.38438228053072443,0.4936431210822878,0.479561593440188,0.10407711599330494,0.24722906013942136,295.0,left
0.18659160107990402,0.6027807203389841,0.5467534949098933,0.38098996738882107,0.5774937736516179,0.4645520465839752,0.5243235453566015,0.201390756209598,0.3203994384213047,0.36702879992077264,0.46349394540125033,0.46328640582143876,0.09918466714609053,0.2128599055029241,296.0,left
0.18547455365986565,0.612776416843051,0.554209184050718,0.3619010032611172,0.5530775948507269,0.5037322049673278,0.5693713415181634,0.2743073769587312,0.37915826586265666,0.3700657622974681,0.47802346027268783,0.4152162192550275,0.10185322427599708,0.21729446487631066,297.0,left
0.21229220258354786,0.6106031514830512,0.5796832323013881,0.3821576197104797,0.5318473655266374,0.498133009318785,0.5666675816449782,0.41319344956055915,0.502217812167153,0.42255993787288837,0.5248817509845924,0.44095379230597054,0.11490013097164198,0.22228426781729738,298.0,left
0.21005385232428608,0.6058229608050851,0.5716057920464621,0.4020255132774082,0.5721852055503405,0.47201290372988325,0.5243235453566015,0.38310374468300523,0.5288273357756168,0.45249500173484947,0.5561196891700018,0.49470083350857585,0.12142358431940625,0.23337013845209498,299.0,left
0.23016921672685697,0.617556607521017,0.5684999943801312,0.3961828006445085,0.5074311867257464,0.3488803385102415,0.4720737289240553,0.25347248242280784,0.42904795583364574,0.4212587366368705,0.5455862232114672,0.49129443241544557,0.11949585388320205,0.27106442092106775,300.0,left
0.26256997504245305,0.6140807070972887,0.5949057819305548,0.3887807454578809,0.447981692919754,0.3059697515532065,0.4936935144078234,0.2858808490005629,0.4124159479804206,0.4173543067697203,0.5328724653760428,0.49772954645708367,0.11875446253506627,0.3009969049921253,301.0,left
0.24580788061003034,0.6058229608050851,0.5986327391302968,0.4129334927789525,0.550954976226258,0.4197726925520797,0.5684689445042999,0.41551211126076026,0.49224029641191436,0.44295038085953564,0.5470388288401065,0.5230894313631076,0.11934791440625858,0.2910194103017716,302.0,left
0.21229220258354786,0.6232074284955935,0.5821678704345494,0.42345126572339886,0.6167723259048401,0.46828247515765753,0.5819808815355145,0.42014061845698336,0.49002353984388236,0.4360089886156917,0.5412270228917588,0.4973504167542142,0.11875446253506627,0.2466738165713842,303.0,left
0.2111730274543504,0.6214678230932211,0.5858960107951852,0.3992985184020217,0.5318473655266374,0.4347015124228477,0.5612600618986114,0.37963016023478957,0.46452450571594994,0.4173543067697203,0.5223389994175083,0.4602576928732258,0.11623440953653752,0.22283845578973782,304.0,left
0.1944151884411056,0.5793134269067792,0.589935322503095,0.39267687632989556,0.5233528479477272,0.47388167080620036,0.5657651846311147,0.38310374468300523,0.49889056611772986,0.41691974686472477,0.5343264544387551,0.477289698339467,0.11801363584136393,0.26053168266268045,305.0,left
0.21340712229443426,0.5719246557203395,0.582790213128856,0.41566048765433905,0.5966013843512386,0.49067215217287696,0.563963821771793,0.376156575786581,0.5000010555982612,0.423861139108908,0.5408645632015645,0.49243037996580696,0.12053368883977633,0.2987801531036638,306.0,left
0.24916115058017851,0.616687632415255,0.5852748512620156,0.4242301951626253,0.5403378400228718,0.45522242236320665,0.5657651846311147,0.4398139780915358,0.5310440923436488,0.43731018985137204,0.5187067936288727,0.47766882804233646,0.1123795133186789,0.2943466493267408,307.0,left
0.26033588020150233,0.6340721001057634,0.5868283416756288,0.4164394170938692,0.49362810104473454,0.4514919937895243,0.582883278549378,0.5196755636862704,0.5997804355402323,0.4446861420002133,0.5223389994175083,0.4878880313220204,0.10541139455820048,0.2926830298142562,308.0,left
0.29944317845739477,0.6179919226694928,0.5862071821424593,0.42345126572339886,0.6125270886567264,0.4962642422439174,0.6009003383130995,0.4791695135657221,0.5753876684998005,0.4464210769814585,0.5499454235314598,0.5193039005671096,0.11430667910033332,0.31042126730649855,309.0,left
0.27821289434481145,0.617556607521017,0.5983227509441598,0.4355283812215731,0.6995746676585668,0.5335827391299119,0.5837856755625381,0.38773225187922833,0.47893553460811233,0.449458039358154,0.5604788894899944,0.5264958324562379,0.11667879262191772,0.30487727639306783,310.0,left
0.18547455365986565,0.6219031382413558,0.6001862295439082,0.42384147228049684,0.602973283306504,0.416042263979854,0.49549487726714503,0.3449075400584718,0.4090929243240282,0.43253829249342957,0.553940780727185,0.5109774626852772,0.10392889418914475,0.27771678777894593,311.0,left
0.17318490432765543,0.6110384666311877,0.5902453106892338,0.4043637852706663,0.5350292719215943,0.276119217392079,0.47387509178407683,0.39699367437332,0.45454698996157816,0.4268981014856035,0.5521243319742783,0.5022718951005736,0.10185322427599708,0.27771678777894593,312.0,left
0.2212285819456099,0.6123427568854236,0.5964580891832725,0.40903736190693785,0.5838616295242076,0.38992215839095223,0.5747754300968282,0.5289369861803621,0.5975594565783098,0.456399431602339,0.5644742466857195,0.5147615519233231,0.10748734679868122,0.3059856523375153,313.0,left
0.23575232611877084,0.6240764036016948,0.607642510265423,0.42345126572339886,0.5881109098550041,0.54104359627582,0.5864860042687248,0.5428269158715793,0.6219522236178747,0.4585689264882422,0.5622953382426186,0.529902233549663,0.10303928103673154,0.3054325199615384,314.0,left
0.23240331156693372,0.6227721133474589,0.6026720508382066,0.41916641196925575,0.552018307080246,0.4608216180117495,0.4891883916746167,0.39236075907545853,0.4878067832749906,0.44034715222806753,0.5532144779127233,0.5151406816261925,0.100370723906825,0.29600815764716515,315.0,left
0.23799067637803262,0.6179919226694928,0.5890029916226531,0.4121545633397261,0.5594454507224853,0.401120549688045,0.5009023970135118,0.33680544841403304,0.45454698996157816,0.44772310437690876,0.551761872284084,0.4886448491698072,0.10526317275404029,0.3364733799766064,316.0,left
0.21899448710553315,0.6153849973515264,0.5834113726620238,0.4183874825297256,0.5944787657275938,0.5354444006272701,0.5585597331924248,0.4016221815695431,0.5144120844904236,0.4420829133690827,0.5477651316545682,0.5060559843389161,0.10467028553728142,0.3691799706966492,317.0,left
0.1653634446764798,0.6053893008474578,0.5787509014209444,0.41332369933635604,0.5721852055503405,0.5447740248480457,0.5279297022436502,0.4571774922309686,0.5277168462942186,0.41778804051494767,0.5437697744588448,0.5370941654387931,0.09725721903710305,0.3314846326316463,318.0,left
0.1810042362696791,0.6075609110169502,0.5896241511560643,0.3961828006445085,0.5276021282785237,0.4197726925520797,0.5288286680898082,0.4988428732011698,0.5388048515299886,0.42039044298664763,0.5466763691499139,0.527630338448942,0.09577471866793186,0.30044377261614486,319.0,left
0.23351823127782012,0.6188608977752548,0.6011185604243519,0.4059216441494229,0.5658173496777579,0.4477615652172986,0.5684689445042999,0.4456018161383142,0.4966738095488381,0.4221262041276628,0.5535769376029176,0.4920512502629375,0.10051894571098607,0.31263801919496004,320.0,left
0.20893893261339969,0.601042770127119,0.5778197537013963,0.42189340684464227,0.6252628004010745,0.5391748291994958,0.5648662187849531,0.35416896255346586,0.4246102203036912,0.41041208836610643,0.5510355694699047,0.4867535253296129,0.10022250210266392,0.3264958852862563,321.0,left
0.1899448710500522,0.5649711996820344,0.5722269515798732,0.4024157198348117,0.5562635443283597,0.4664137080813333,0.5648662187849531,0.44328756253975143,0.5210665765892699,0.4316708250029766,0.5543046238511682,0.5185470827193228,0.099036445341814,0.3475613618034643,322.0,left
0.20670483777332294,0.5619289592159333,0.5927311319835304,0.37319770564478993,0.4405525277353419,0.33768550000190345,0.5513508505867364,0.5393533314233636,0.6319297393731205,0.4633408238461829,0.5699235929438728,0.5314158692449418,0.10214966788431834,0.3569836129257773,323.0,left
0.22234775707567422,0.5714901681671183,0.5781297418875333,0.3704721944446785,0.46284406637125386,0.2929096987587556,0.48468670010911197,0.40277710431755764,0.5055450582165761,0.4394796847376128,0.5702860526340672,0.5143838637784057,0.10392889418914475,0.3364733799766064,324.0,left
0.22010940681641245,0.5636677370230512,0.5663253444331087,0.3805997608317213,0.5605087815764804,0.3227602329213397,0.45855836072583855,0.25231535562397767,0.37250588496118553,0.4121478495067823,0.5561196891700018,0.509084697287129,0.10452178140590362,0.33259511976815404,325.0,left
0.17877014142872838,0.5654056872349162,0.5815467109011383,0.3805997608317213,0.5552002134743717,0.36007162422836814,0.48738702881529505,0.2754645037575614,0.4412422281569093,0.4260306339948112,0.5510355694699047,0.4867535253296129,0.10140855886339839,0.3292678807431848,326.0,left
0.10949617969819059,0.5571487685379672,0.575955091940509,0.3689128518906468,0.4171976582462733,0.33022109006724065,0.48558566595527,0.314817835180925,0.4667412622848417,0.424295699013566,0.5466763691499139,0.43452011982228456,0.09251299199404883,0.2948997817027177,327.0,left
0.0770954213825874,0.5319426972986445,0.5570055851116003,0.3572259429498761,0.3545642365039825,0.23133986336017642,0.4639658804722053,0.309029997135049,0.4157431940298437,0.41691974686472477,0.546312526025929,0.4401969744584786,0.09414371416738199,0.30432414401709096,328.0,left
0.134077606071763,0.5349841101694928,0.5591796434781777,0.3580048723891025,0.46178275705860017,0.23133986336017642,0.45946075773899864,0.3506953781052502,0.46452450571594994,0.43991341848284016,0.5561196891700018,0.47766882804233646,0.10437355960162709,0.3802658413314468,329.0,left
0.1810042362696791,0.5588875463450851,0.5675676634996876,0.3599529378252626,0.5690032991553906,0.401120549688045,0.48558566595527,0.40856494236433605,0.5199560871078788,0.4568331653475646,0.5546670835413625,0.46820644261014266,0.10555961636247702,0.4223946831733727,330.0,left
0.1553078901852203,0.5584522311969504,0.565393013552665,0.3630701392577471,0.5732485364035043,0.5111930621132359,0.5090102454660652,0.4305569636990896,0.5221728436767705,0.45032550684894623,0.5655643926241645,0.4693423901605023,0.1065974513190513,0.4290470500312509,331.0,left
0.16089312728629324,0.5488918498410182,0.5803043918345576,0.378651695395563,0.5467097389781372,0.4664137080813333,0.5207208196372584,0.41319344956055915,0.5565431264715812,0.4537962029708691,0.5993464658104504,0.5007568178476394,0.1110452347536679,0.439024544721601,332.0,left
0.195530108151992,0.5719246557203395,0.6004974008911823,0.38644395713959234,0.5711259177798595,0.48694172360065124,0.5792805528300349,0.40972427321398186,0.6019971921082643,0.4659440524776528,0.606973337077914,0.4950799632114453,0.10852461710070482,0.43181693429568924,333.0,left
0.21452629742449858,0.5906117584745765,0.5992550818246034,0.38098996738882107,0.5944787657275938,0.5447740248480457,0.6162170693713414,0.44791606973597453,0.6208417341373504,0.4702830422497968,0.5993464658104504,0.479561593440188,0.11326940879830971,0.4539907867569113,334.0,left
0.21787531197546173,0.572794458421356,0.5874495012090399,0.3770938365168046,0.5265387974253599,0.5037322049673278,0.5864860042687248,0.4513896541841902,0.5997804355402323,0.46854645494969027,0.6007990714390896,0.4935663275161666,0.11831007944968519,0.5011083759442307,335.0,left
0.23016921672685697,0.5497608249467802,0.5768874228209526,0.378651695395563,0.45541287964550037,0.4962642422439174,0.5765767929568497,0.41319344956055915,0.5210665765892699,0.4577006328383568,0.5829998104694933,0.49243037996580696,0.10630100771061368,0.4833701384519884,336.0,left
0.27485962437466327,0.5532375529661024,0.5778197537013963,0.37982083139219114,0.5010592877704809,0.54104359627582,0.6081092209194914,0.4166670340087748,0.4667412622848417,0.44425158209555526,0.553940780727185,0.47577606264418826,0.09814683218951625,0.4268281869502957,337.0,left
0.2826810840258389,0.5701867055084744,0.5784409132348074,0.3724187762055635,0.5902335284794731,0.4477615652172986,0.6036040981862847,0.4398139780915358,0.504434568735185,0.44685481072702515,0.553940780727185,0.4738832972463367,0.10467028553728142,0.43348055380817385,338.0,left
0.26145079991238873,0.572794458421356,0.5858960107951852,0.3708609173268069,0.552018307080246,0.2929096987587556,0.5306300309491299,0.40277710431755764,0.5199560871078788,0.45206126798962387,0.5666545385626112,0.47577606264418826,0.10719062086302689,0.4628599055032474,339.0,left
0.2547485153912774,0.5614944716630514,0.5821678704345494,0.3689128518906468,0.4840742956945121,0.31343060869910744,0.4747740576302384,0.37384232218801117,0.4534365004801799,0.44425158209555526,0.5608427326139793,0.46707049505978127,0.10214966788431834,0.44179654017809966,340.0,left
0.2279308664675952,0.5514987751586435,0.5737804419934864,0.36696478645479225,0.524416178800891,0.4496232267146638,0.5225221824972799,0.3946750126731189,0.4235039532161906,0.44251664711431005,0.5499454235314598,0.46404322366922557,0.10096361112358387,0.4229478155493531,341.0,left
0.23240331156693372,0.5649711996820344,0.5955269414637243,0.38449589170373777,0.5934194779571129,0.505593866464686,0.6054054610463098,0.4224548720546508,0.48115229117614433,0.45249500173484947,0.5586624407370877,0.4791824637376134,0.10541139455820048,0.4351441733206549,342.0,left
0.2715063544045151,0.582355667372882,0.5902453106892338,0.393455805769122,0.5859882912313594,0.498133009318785,0.6225235549638697,0.43865905534352834,0.5121953279215319,0.4555319641115467,0.5688334470054279,0.46593454750941987,0.10644922951477476,0.4429049161225471,343.0,left
0.2871492737068735,0.5688824152542384,0.561354293425202,0.378651695395563,0.5297247469029998,0.498133009318785,0.5918935240150915,0.4374997244938754,0.4323709794900381,0.449458039358154,0.5524881750985458,0.42619224038250003,0.1022981720158116,0.43569730569663534,344.0,left
0.253629340261206,0.5649711996820344,0.5809255513679688,0.37982083139219114,0.5360926027747581,0.5037322049673278,0.5567583703331067,0.423614202905199,0.4235039532161906,0.448590571867701,0.553940780727185,0.43981928631356126,0.10778379040700248,0.4268281869502957,345.0,left
0.24022477121810937,0.5827893273305094,0.614476448292633,0.39423473520865215,0.5870475790018403,0.48694172360065124,0.5297310651029683,0.468753168323623,0.5920196763538854,0.47809190198443474,0.6000727686249103,0.4890239788723818,0.12231291514460274,0.43625254926466894,346.0,left
0.2581017853614185,0.5723591432732213,0.6039143699047873,0.38449589170373777,0.5679399683022268,0.45708408386056476,0.5216232166511219,0.4942143660049467,0.6363632525100442,0.49674658383040615,0.6077010233261664,0.48523844807638206,0.122609358752924,0.443458048498524,347.0,left
0.25139524542112923,0.5562797934322035,0.5821678704345494,0.3689128518906468,0.5307840346734807,0.4496232267146638,0.5405426734287033,0.4421326397917369,0.4966738095488381,0.46811354736389355,0.5641117869955252,0.4602576928732258,0.11504807044858545,0.44013292066561505,348.0,left
0.27821289434481145,0.5706211930613563,0.5843425203815737,0.3708609173268069,0.5477690267486253,0.4944025807465593,0.5783781558161714,0.46527958387540735,0.46230774914792505,0.44989177310372064,0.5521243319742783,0.47350560910141937,0.11786513170986979,0.44013292066561505,349.0,left
0.3150818423414421,0.5784444518006779,0.5989439104773275,0.38137869027094773,0.5828023417537267,0.5671637018647218,0.6009003383130995,0.5081042956952615,0.5055450582165761,0.4629070901009573,0.5681071441912504,0.47993928158510535,0.12053368883977633,0.4345889297521879,350.0,left
0.3307247616438005,0.716209282309153,0.668220354273922,0.4951305782476947,0.5923561471031178,0.5895533788799412,0.409008872998772,0.32291551872371826,0.5232833331573019,0.5002181061120972,0.48819446654102805,0.40386106842498215,0.1095624520572791,0.3580919888697913,1.0,right
0.320669207151667,0.716209282309153,0.6669768520464476,0.5157774012541534,0.6210175631529538,0.645516913052461,0.43513721238274883,0.28009301095378447,0.5099785713534999,0.4793922770610237,0.46240449117998317,0.38190830539091714,0.10555961636247702,0.3420173708900336,2.0,right
0.3620106002485102,0.7257713188559318,0.6884121801694114,0.5204524615653963,0.6804670569589533,0.6884275000094959,0.43513721238274883,0.26504815851545516,0.5432383646669123,0.45943639397903446,0.46131434524153825,0.3970482662384285,0.10363245058070714,0.35310324152483474,3.0,right
0.32290330199261774,0.7036066604871198,0.6821994016756143,0.49785757312307943,0.5743078241739852,0.6156663788913406,0.3837846462121597,0.23842762998357614,0.43791498210748614,0.44728854447225075,0.42680666095768593,0.3898563343490036,0.09399549236322091,0.31152964325094246,4.0,right
0.3027921930092319,0.6901350635593229,0.676607782714985,0.49435164880816274,0.5445871203544925,0.54104359627582,0.36126246371522797,0.20486213660699093,0.3481152291172691,0.44425158209555526,0.41009754592653636,0.36979561593425636,0.09058554388506224,0.26607567357611117,5.0,right
0.3631297753777005,0.7279445842159333,0.697731939490918,0.523179456440781,0.6942660995564651,0.5858158447287565,0.3981989802572379,0.24768684842774746,0.4523302333926793,0.4533624692256417,0.4547762364787271,0.4046178862724741,0.10185322427599708,0.31929038605283466,6.0,right
0.38659415433124167,0.7501075873938987,0.7045670606790218,0.5348663653818573,0.6815263447294342,0.5932838074536235,0.41171263287195714,0.29398294064500163,0.5055450582165761,0.4663786123826483,0.4791136062111345,0.44511701124688585,0.10793172988394595,0.37472185041801964,7.0,right
0.3396653964241665,0.7244670286016959,0.689034522863718,0.5134406129358666,0.5063678558717584,0.46828247515765753,0.3693703121677814,0.22453770029326137,0.3835917789995804,0.4446861420002133,0.43407176425185234,0.41900175005102724,0.09414371416738199,0.3226155138853102,8.0,right
0.3128477475004914,0.7170799126057634,0.6837528920892257,0.5068174871884654,0.5541409257038907,0.5205226863354611,0.35945938527240884,0.16551100923535245,0.31374705751984067,0.40997835462087906,0.3973844798080055,0.3800155399930638,0.08183848114720593,0.2522178074848149,9.0,right
0.3463676809461518,0.7305515095338979,0.6818894134894773,0.509544482063852,0.720804896981825,0.6921650341606878,0.42612696691703533,0.22222344669469862,0.3824834007155644,0.41041208836610643,0.415909351874884,0.38190830539091714,0.08465526008127355,0.2599785502867036,10.0,right
0.34748685607534924,0.7101264565677976,0.6707049924070834,0.4873398001786349,0.6974520490340979,0.6828354099384555,0.47927918036274164,0.2754645037575614,0.41019919141152883,0.424295699013566,0.42353760657614004,0.4015906148819184,0.08747232134255789,0.2738364163779998,11.0,right
0.3307247616438005,0.6797040519067803,0.6632498948467056,0.4701989014870911,0.63163469935634,0.6063438602480744,0.48018157737660516,0.25231535562397767,0.39467978423535044,0.4286338626262811,0.4093712431120746,0.4394401566106918,0.08465526008127355,0.2754979246979907,12.0,right
0.34860177578623563,0.6805730270125423,0.658900594952657,0.4740950323591058,0.6730358702332069,0.6884275000094959,0.48288190608208836,0.27083379251051554,0.4600909925790262,0.4416491796235178,0.43697766722602793,0.47804795774490927,0.0932543833421855,0.31929038605283466,13.0,right
0.3553083157265249,0.6866575079447461,0.664803385260317,0.4768220272344923,0.6528649286795982,0.7332068540413985,0.45855836072583855,0.2997685746400549,0.4878067832749906,0.4555319641115467,0.46131434524153825,0.4454961409497553,0.10348422877654695,0.33037625668719883,14.0,right
0.3575424105674756,0.6727505958684752,0.6744331327679625,0.47136803748371925,0.6061551897014539,0.6100742888203001,0.39729829882757883,0.19444579136489182,0.3980049190882582,0.44511987574577816,0.4282599583032205,0.3781227745949174,0.09266121379820991,0.28603066295681145,15.0,right
0.3620106002485102,0.694915254237289,0.6719484946348011,0.47721075011662073,0.6571101659277119,0.5839541832313984,0.3675672337242588,0.11111282537276423,0.3481152291172691,0.4268981014856035,0.4086449402978971,0.37547319134927903,0.0868791517985823,0.2915746538702422,16.0,right
0.3620106002485102,0.7201221530718644,0.6607640735524072,0.4853917347427785,0.6549875473040743,0.6249960031121091,0.36306382657525305,0.17129664323040572,0.3625283692059469,0.41822177426017326,0.42789680689613263,0.400454667331557,0.09562649686377078,0.3348118716566155,17.0,right
0.373185329869834,0.6857885328389841,0.6554836259390537,0.48149560387076384,0.5944787657275938,0.5671637018647218,0.35585665955306567,0.22222344669469862,0.3758310198132335,0.42820012888105374,0.4228113037619625,0.38909951650151164,0.09444044010303632,0.3209540055653193,18.0,right
0.36647878992954475,0.6571057335803392,0.6520654737643117,0.46162919397880486,0.5552002134743717,0.49067215217287696,0.3603600667020679,0.23726829913393033,0.4157431940298437,0.4464210769814585,0.41518304906070647,0.37850118351895823,0.08999265666830336,0.29822702072768337,19.0,right
0.3642446950885869,0.6610169491525433,0.6480273452175389,0.442540229851101,0.48726024517214483,0.48880338509801646,0.37657747918996876,0.27083379251051554,0.4390254715888844,0.4490243056129284,0.4315290126847682,0.38909951650151164,0.09577471866793186,0.3314846326316463,20.0,right
0.3843558040719799,0.6488479872881356,0.6536189641781665,0.4468250836052441,0.4925688132742465,0.5858158447287565,0.41621775560516383,0.28819510259822323,0.43791498210748614,0.4507592405941736,0.4406098730146635,0.39894103163628003,0.10259461562413374,0.36585273167168353,21.0,right
0.4011178985044026,0.6214678230932211,0.6613852330858183,0.45072121447726055,0.6061551897014539,0.6417864844802423,0.4819829402359268,0.2893522293979558,0.4966738095488381,0.4577006328383568,0.4580452908599906,0.40726746951811243,0.10600456410229242,0.36640797524015056,22.0,right
0.3642446950885869,0.6097341763769499,0.6442992048566598,0.42812632603463996,0.5870475790018403,0.5634332732910394,0.4900907886884802,0.29282581384617146,0.5066513253040767,0.456399431602339,0.45695583663844097,0.39326273544242873,0.10363245058070714,0.3314846326316463,23.0,right
0.3106136526604075,0.612776416843051,0.6178934173062363,0.4137124222184827,0.5,0.47388167080620036,0.4099112700126355,0.2847237222017327,0.41352643746095197,0.443384114604763,0.42462706079768964,0.36903879808676443,0.09473688371135758,0.2954550252711847,24.0,right
0.3296098419329141,0.627552304025425,0.6300089861079368,0.4386440989790863,0.550954976226258,0.5074626335410102,0.35585665955306567,0.27083379251051554,0.3702891283922938,0.4420829133690827,0.4228113037619625,0.3898563343490036,0.09103049162487764,0.2943466493267408,25.0,right
0.2983240033281973,0.6310298596396606,0.6390187572433064,0.44721529016234385,0.5966013843512386,0.5354444006272701,0.37837884204999384,0.23032553833913738,0.38580853556847217,0.42733183523083085,0.4068284915449887,0.38266512323870217,0.08435881647283594,0.27716154421047534,26.0,right
0.23463740640788444,0.617556607521017,0.6036031985575132,0.42189340684464227,0.5530775948507269,0.5074626335410102,0.39459453895439367,0.17361089682806607,0.35144247516669225,0.3878529766526473,0.34398808033329153,0.3130205825622667,0.07012613534367329,0.22006646033280575,27.0,right
0.2703914346936287,0.6114737817796616,0.5917988011030886,0.4179972759726258,0.5424604586473478,0.48694172360065124,0.3693703121677814,0.18055586167367466,0.3126386792349649,0.393492341501382,0.34362492892591945,0.30431501497756486,0.07501858419100405,0.19900203941162786,28.0,right
0.3139669226305557,0.6153849973515264,0.6157187673592137,0.4253993311592552,0.5774937736516179,0.4999946708161431,0.38918873479152793,0.23842762998357614,0.39911540856964933,0.44555360949100553,0.42898626111768223,0.3769875478236795,0.09533005325533317,0.25554293531729044,29.0,right
0.2960899084872466,0.6214678230932211,0.6259708575611622,0.40903736190693785,0.579616392276094,0.5597028447188137,0.4288307267902205,0.26967666571168536,0.4855900267069586,0.4633408238461829,0.48201950918530834,0.4242994749846467,0.10600456410229242,0.30044377261614486,30.0,right
0.24804623086929212,0.6040850105932201,0.6172722577730685,0.38839053890047737,0.5552002134743717,0.5634332732910394,0.39639761739721635,0.27083379251051554,0.445675741293833,0.4416491796235178,0.4925529751438429,0.4311137187288594,0.1114901824934833,0.30432414401709096,31.0,right
0.22458185191575808,0.5710556806142382,0.5983227509441598,0.37982083139219114,0.5392785522523909,0.48880338509801646,0.34774881110051226,0.24884397522657764,0.4235039532161906,0.4585689264882422,0.5212495451959569,0.44133292200884,0.11875446253506627,0.31762676654035005,32.0,right
0.22234775707567422,0.5554099907308476,0.5815467109011383,0.35021409432034645,0.5382152213992271,0.48507295652433413,0.362163145145594,0.2615745740672466,0.491129806931383,0.48850316419111195,0.5372316656960336,0.4405761041610532,0.11786513170986979,0.32150713794129615,33.0,right
0.23910559608891901,0.5606254965569502,0.5747127728739283,0.3229448874039704,0.5435237895005045,0.5652949347883975,0.3990996616869005,0.3460668709090271,0.5121953279215319,0.4772244344939818,0.521612696603329,0.4348978079672019,0.11653085314497424,0.3170736341643732,34.0,right
0.29050254367702166,0.5714901681671183,0.5728492942741799,0.3373587912201277,0.5456464081249806,0.5764933260854903,0.40720751013945033,0.41551211126076026,0.47893553460811233,0.4724508848168405,0.5237916050461475,0.4371697030679229,0.11860652305812192,0.3475613618034643,35.0,right
0.2770937192147471,0.5701867055084744,0.5709846325132926,0.34437138168744674,0.5541409257038907,0.5503732204965885,0.38738737193150286,0.391205836327444,0.5011073226857619,0.4941441813587062,0.5444960772730223,0.4318705365766462,0.11727224449311091,0.3675163511841646,36.0,right
0.2581017853614185,0.5623642743644073,0.5806155631818317,0.3354107257842731,0.5562635443283597,0.4962642422439174,0.3693703121677814,0.3865773291312209,0.5643038856579281,0.5114968358092273,0.5590262838613551,0.4542017085341623,0.12631575083940483,0.36141922789476055,37.0,right
0.3407803161350529,0.5740979210803392,0.5998762413577712,0.3541102251923611,0.5435237895005045,0.47388167080620036,0.4099112700126355,0.48495294350995266,0.6319297393731205,0.5210422828439718,0.5790044532737681,0.49621591076180493,0.1408448755770042,0.4068731975695954,38.0,right
0.3675979650587351,0.582355667372882,0.5980115795968857,0.36774519956929197,0.552018307080246,0.6623144999981037,0.50630648559288,0.5370390778248009,0.6563182840196546,0.5266816476927048,0.5891754595421084,0.4871312134745285,0.13862126618691306,0.43126380191971236,39.0,right
0.30502628784930863,0.5867005429023724,0.582790213128856,0.3646279981365037,0.5774937736516179,0.7518661024843922,0.5216232166511219,0.47453659826785355,0.6164082210004267,0.5132317707904726,0.5670169982528037,0.43868333876320165,0.13283920418728457,0.3858098322448775,40.0,right
0.2715063544045151,0.5932203389830519,0.5790620727679769,0.37826297251343455,0.5743078241739852,0.5578340776424966,0.42252424119769216,0.3900465054768887,0.5543221475096516,0.49804861122585464,0.545222380087484,0.42089307389122155,0.13135642149089577,0.35144173320440686,41.0,right
0.25586769052046776,0.5767056739935601,0.5716057920464621,0.38644395713959234,0.5562635443283597,0.45708408386056476,0.3810808863389745,0.3506953781052502,0.5388048515299886,0.5015184811883469,0.5499454235314598,0.4099170527637508,0.12394363731793501,0.3292678807431848,42.0,right
0.24022477121810937,0.5684479277010173,0.5594908148252102,0.369691781330177,0.5732485364035043,0.5597028447188137,0.42612696691703533,0.3703731458423434,0.5942364329219174,0.5032534161695938,0.5492191207169981,0.3928843265183879,0.11949585388320205,0.3165183905959026,43.0,right
0.2592167050723049,0.6040850105932201,0.5650818422053909,0.36345886213987555,0.5530775948507269,0.5373131677021377,0.4054061472794288,0.4004628507198973,0.6108642183821047,0.5049900034700396,0.5437697744588448,0.40688833981553785,0.12320224596968288,0.34312574683448105,44.0,right
0.3106136526604075,0.6279876191735596,0.5871395130229029,0.37397811875929143,0.4925688132742465,0.44216236956875576,0.36306382657525305,0.3946750126731189,0.5875819408230711,0.5058574709604926,0.5521243319742783,0.44208973985633016,0.12231291514460274,0.3691799706966492,45.0,right
0.32849066680284267,0.6132117319915267,0.5930411201696675,0.3763149070775782,0.5265387974253599,0.5074626335410102,0.37747816061963135,0.38310374468300523,0.6019971921082643,0.49978354620710164,0.5543046238511682,0.46215045827107915,0.12320224596968288,0.36585273167168353,46.0,right
0.320669207151667,0.6171229475633897,0.5753339324073412,0.37008198788727675,0.605095901930973,0.5671637018647218,0.3855860090721812,0.4062506887657662,0.6263857367547985,0.5036879760745894,0.5499454235314598,0.4666928069148639,0.1297256993175635,0.37472185041801964,47.0,right
0.32290330199261774,0.6153849973515264,0.565393013552665,0.3599529378252626,0.5902335284794731,0.5597028447188137,0.37297303788712455,0.40972427321398186,0.6208417341373504,0.5132317707904726,0.5488552775930149,0.45647216207722785,0.12779853353579362,0.38082108489948396,48.0,right
0.2960899084872466,0.5767056739935601,0.5647718540192539,0.34826602888418634,0.5498916453730942,0.5354444006272701,0.37387371931678715,0.3958343435236671,0.6274962262361967,0.5114968358092273,0.5535769376029176,0.43792652091541484,0.12394363731793501,0.3603108519507465,49.0,right
0.2648040698825298,0.5523685778600012,0.557937324411597,0.33268447274637225,0.5668766374482388,0.4944025807465593,0.371171675027103,0.4108791959619964,0.6452345011769154,0.5162687331671698,0.5601164297998,0.4311137187288594,0.13031858653432238,0.3608639843267234,50.0,right
0.2770937192147471,0.5758366988874588,0.5591796434781777,0.33696932650051536,0.5668766374482388,0.47388167080620036,0.37747816061963135,0.40856494236433605,0.6186249775684516,0.524512152806464,0.5659282357481494,0.4454961409497553,0.13624915266532778,0.37250509852955815,51.0,right
0.3016772732983455,0.6140807070972887,0.5641506944860843,0.35527936118899106,0.552018307080246,0.47201290372988325,0.371171675027103,0.3900465054768887,0.5654101527454216,0.5136663306951306,0.5641117869955252,0.45760810962758747,0.13150492562227356,0.37638546993050426,52.0,right
0.2804469891848882,0.616687632415255,0.5622866243056439,0.35527936118899106,0.5615721124296371,0.47014413665501564,0.343243688368009,0.3750016530385665,0.504434568735185,0.49674658383040615,0.5532144779127233,0.43981928631356126,0.12157152379635061,0.36640797524015056,53.0,right
0.23240331156693372,0.6023470603813568,0.5638395231388103,0.35294108919573297,0.5552002134743717,0.47201290372988325,0.352252218249518,0.34375261731046436,0.48447953722556747,0.4989160787166469,0.553940780727185,0.43679057336505345,0.12364719370949828,0.35310324152483474,54.0,right
0.2592167050723049,0.6084315413135606,0.5688099825662682,0.36267993270064736,0.5445871203544925,0.4776120993784261,0.3864866905018438,0.3402790328622487,0.5376943620494643,0.5123643032996803,0.5804570589024074,0.4678273129072732,0.13535982184024764,0.38470145630043007,55.0,right
0.3608956805376238,0.6192962129237287,0.5771974110070897,0.37319770564478993,0.5488323576026133,0.4664137080813333,0.3810808863389745,0.3842586674310198,0.593125943441386,0.5119313957138836,0.6146015917791701,0.49924318215236063,0.1412898233168196,0.46729552047223066,56.0,right
0.373185329869834,0.6027807203389841,0.5824790417815802,0.36579713413313364,0.5382152213992271,0.48694172360065124,0.3954952203840527,0.41319344956055915,0.625279469667305,0.5171378529768216,0.6276791927385794,0.4943231453636585,0.1408448755770042,0.5011083759442307,57.0,right
0.31843511231158317,0.5910470736227129,0.5837213608481608,0.3494351648808163,0.5403378400228718,0.5447740248480457,0.4540532379926283,0.40856494236433605,0.6407967656469609,0.5427339270666387,0.6113325373976242,0.4458752706523299,0.13965910114348645,0.4478936634675037,58.0,right
0.3173201926007039,0.596262579449153,0.582790213128856,0.35255236631360454,0.5870475790018403,0.5597028447188137,0.4639658804722053,0.40393643516810585,0.6474512577458142,0.5518448141967252,0.6011615311292822,0.4295986414759252,0.1369905440135799,0.41685069225994553,59.0,right
0.3452527612352654,0.5862668829447468,0.5815467109011383,0.3638490686972773,0.5573228320988406,0.505593866464686,0.400002058700764,0.4259284565028594,0.6385800090780691,0.5327555724460975,0.6131489861505308,0.4700992080079942,0.13743492709884553,0.44678528752348967,60.0,right
0.3296098419329141,0.5732289459745772,0.5703634729798814,0.35021409432034645,0.45222895170920907,0.46828247515765753,0.35855870384204636,0.38889158272888125,0.5809316711181154,0.5114968358092273,0.617144343346256,0.47653288049197506,0.14203121466495627,0.4545460303253819,61.0,right
0.25028032571024283,0.5636677370230512,0.5486175650900904,0.3233350939610684,0.47239787172064496,0.5279835434813691,0.39279317609437214,0.31828701152749517,0.5077618147846081,0.5067249384512849,0.5917182111091943,0.4553376560845237,0.1346184304919955,0.4068731975695954,62.0,right
0.21452629742449858,0.5649711996820344,0.5523457054509695,0.3315153367497423,0.579616392276094,0.555965310567629,0.3981989802572379,0.3194463423771481,0.4889130503624912,0.5015184811883469,0.5681071441912504,0.5158974994736845,0.12483353279756582,0.38470145630043007,63.0,right
0.2525144205503196,0.5875695180084755,0.5706746443271555,0.3556680840711195,0.5870475790018403,0.5149234906869182,0.3666665522945962,0.3807894910844425,0.5321503594311423,0.5023859486791409,0.5844524160981326,0.6109019250561456,0.1297256993175635,0.4190695553408972,64.0,right
0.2703914346936287,0.6001737950210178,0.5688099825662682,0.35255236631360454,0.5488323576026133,0.5578340776424966,0.4180191184644855,0.4004628507198973,0.5487823672852343,0.5132317707904726,0.5997089255006429,0.6309612019132356,0.13254276057884784,0.41629755988396866,65.0,right
0.26592324501260123,0.5775754766949159,0.561354293425202,0.34203310969418865,0.5583861629520044,0.6100742888203001,0.4639658804722053,0.3657402305435724,0.504434568735185,0.5114968358092273,0.578640610149785,0.5870556758453986,0.12468502866607167,0.366961107616131,66.0,right
0.24580788061003034,0.5636677370230512,0.5570055851116003,0.34242331625128664,0.5679399683022268,0.5541036490702709,0.4081099071526104,0.3460668709090271,0.4833690477450361,0.5036879760745894,0.5684709873152336,0.5230894313631076,0.12631575083940483,0.3652995992957031,67.0,right
0.23351823127782012,0.5654056872349162,0.5538986042841341,0.3385279272167576,0.5562635443283597,0.5335827391299119,0.3693703121677814,0.331017610368157,0.4822627806575355,0.4993489863024436,0.5702860526340672,0.4697200783054196,0.13610064853394999,0.3819294608439314,68.0,right
0.26033588020150233,0.5645367121291525,0.5588690637115938,0.3268410182759851,0.550954976226258,0.5783549875828484,0.38828805336186534,0.30787066628449367,0.4689580188528737,0.5006510136978939,0.5612051923041719,0.46101451072071775,0.1350628135773766,0.3641912233516891,69.0,right
0.2770937192147471,0.5827893273305094,0.5663253444331087,0.3319048014693564,0.552018307080246,0.5578340776424966,0.37837884204999384,0.3194463423771481,0.47893553460811233,0.5062903785462893,0.5721025013869738,0.4719919734061424,0.13476636996893898,0.3719519661535813,70.0,right
0.2581017853614185,0.5919160487288142,0.561354293425202,0.3463194471233013,0.5679399683022268,0.5522348819939467,0.3639645080049121,0.3460668709090271,0.5121953279215319,0.5171378529768216,0.5920806707993886,0.44814572419539545,0.14010404888330186,0.38082108489948396,71.0,right
0.2368715012479683,0.5667099774891522,0.5439576854294579,0.33385286690551474,0.5700625869258715,0.6044750931717502,0.381981567769337,0.3657402305435724,0.5266063568136943,0.5318881049553053,0.5855425620365775,0.4182434906455832,0.13876977031829085,0.3619723602707374,72.0,right
0.26256997504245305,0.5558453058789841,0.5414724557158497,0.3202178925285839,0.550954976226258,0.6044750931717502,0.390091131804688,0.42476912565321356,0.5643038856579281,0.5522777217825219,0.5964398711193795,0.45760810962758747,0.14410688457810394,0.3863629646208544,73.0,right
0.3363121264540254,0.5849625926905091,0.5647718540192539,0.33774825594004554,0.5583861629520044,0.5876846118050736,0.38918873479152793,0.5023164576493855,0.6374737419905685,0.5744039259101843,0.6222298464804261,0.5264958324562379,0.15908095705551872,0.4351441733206549,74.0,right
0.38212170923189603,0.612776416843051,0.5796832323013881,0.360731867264489,0.5870475790018403,0.6175351459662011,0.39729829882757883,0.5289369861803621,0.6629727761185009,0.573101898514734,0.609516088645,0.5249807552033037,0.15596745218579677,0.44234967255407653,75.0,right
