Time128Hz,Epoch,AF3,F7,F3,F5,T7,P7,O1,O2,P8,T8,FC6,F4,F8,AF4,EventId,ID_Chunk
,,118.55612951230383,118.57458032998771,118.4048552911693,117.69274225882532,117.45291675998564,118.30522368616661,117.59312470623374,118.35688035471243,118.2793953518937,118.03588109475663,118.3162969872586,118.68525713125726,118.56350702889573,118.98412384144022,,
,,548.56868630046,548.879147265819,548.1600057932794,544.7275659100488,543.8795257481905,547.4848960754739,544.1041497959648,548.1224533423508,547.889282696852,546.6256852710326,548.1006611161044,549.7935964408916,548.9238315627782,550.6418638057205,,
,,881.0476476294596,882.399997794637,881.323106607436,875.7815733681122,874.7378047886394,879.602665959998,874.0161176817735,881.978801220324,881.9388036488751,879.6984607598374,882.5376556295819,884.911369658111,882.8096167053038,884.7247343335107,,
,,210.67620706291007,212.97578358779685,212.40275478053002,212.2394862917978,211.50221190435892,211.28869393358693,210.0581394510761,214.93999501070942,215.56990538259367,214.98695174433885,216.263566632784,215.4444972490217,214.1129246791474,212.53306291702327,,
,,-1219.4986371752334,-1219.0935133216851,-1219.3543260623733,-1207.8089439185085,-1207.9536597046224,-1215.3447422125607,-1206.618072329296,-1214.4580358505848,-1213.641666345301,-1210.4254442449242,-1214.6449772548285,-1220.456650540922,-1217.559211521753,-1222.7724912290496,,
,,-1874.830676265267,-1878.9766554544235,-1879.9340101292912,-1863.778875287515,-1860.821895197131,-1870.0163417505466,-1857.1389203044441,-1875.4102624273214,-1875.7514307006575,-1871.5608599507523,-1879.782345473625,-1885.0247978729114,-1879.307129452282,-1881.9390125490875,,
,,-1110.0022150762397,-1115.0934115801497,-1114.7963378781787,-1108.5094298230117,-1102.3547883622873,-1109.5847988993567,-1105.0281841664262,-1119.1656044225701,-1121.4525152906592,-1120.0891806232094,-1124.6992110886679,-1122.5302924436282,-1121.0428341794347,-1117.4535715716438,,
,,56.10775927211749,57.29031597092401,63.338555821368445,55.67345136112938,56.168091333615465,51.68464552954843,44.31839467623142,42.821684972294904,39.52263797205089,39.60652506918544,42.841712831385735,51.32946380975969,45.71023425350103,50.318458972976444,,
,,606.457621136175,613.7793860146651,623.6587173831167,611.2386187755578,600.9936415081588,602.279917894217,592.0296005362864,597.458613983999,595.546639970267,597.4304867253222,602.7528792009958,610.1977415648696,604.222038442864,604.1826750144138,,
,,656.5795173150553,660.9824946087585,663.5959433366717,655.8233924279143,646.0364092703065,653.6509052768216,650.251145705113,656.2208873240733,657.8375464211866,659.6889948235424,660.046723140842,661.7823841048106,662.0533490665741,659.7480106878646,,
,,722.2726113910911,717.7234861032488,708.0139796310115,705.4444727599006,706.1877800257815,714.8047720282287,719.6275498056731,727.5393931041813,733.106903604852,730.7351247721114,728.8161606143863,726.7089455795985,729.7692744350658,729.9451852817539,,
,,822.2723762099492,813.4038741261402,802.2822264146273,800.3855858744703,805.4768779332076,812.8603514051238,821.3842394935331,831.0093792634394,838.5929808919346,831.2350923207423,833.2029749030322,830.4225877569656,830.0062304614586,831.2332947261625,,
,,688.4682941433173,683.9548885705833,681.7658707429639,679.6855526958914,683.0506814798199,692.7325457155835,699.3849849253171,704.3158834469381,709.8768180826261,701.0072874034989,704.5223285986674,699.9103768167606,698.4841874244362,695.9971898748851,,
,,332.00596214435535,332.761583722421,335.4131391841487,336.14384803408007,342.60056899907033,352.92507473400997,353.63773238366184,351.83401905119257,352.0684857509049,346.37986078857455,345.76993799742763,337.2233131371201,341.0577349601293,334.77913469950556,,
,,6.17437402898733,3.3453850933952225,6.228729564248624,7.851008121146521,18.112032654539462,19.6426203559558,14.011959374776836,12.486561312169925,7.657875861508884,8.240656848231936,6.1041362756257485,-3.6090967397402096,4.7444518694215105,0.22808030684090852,,
,,-176.80632922760108,-186.50049094288954,-179.58355151193678,-182.5238726386502,-176.7363069470042,-188.15730050356967,-197.63505596526858,-193.888901796095,-201.72916160248377,-194.2254846965568,-191.31077011701666,-197.7643488710866,-190.03507541760584,-188.0114085254138,,
,,-306.3721290686462,-307.6682907979175,-300.5225167653274,-303.741884131574,-304.25155657104796,-320.1449899173466,-331.12393844867194,-326.70147771348434,-335.89637151974904,-324.27034090034226,-317.20137329013846,-319.42593801115197,-314.7911868646828,-307.8518181320237,,
,,-432.0863919869825,-409.7651595790536,-415.67093931488876,-408.0639887864766,-407.27153809176514,-417.33289359492915,-426.7478707667819,-427.76187093485544,-434.7823710873117,-425.77055921345476,-421.6081356709036,-419.172383161043,-419.29336981100414,-414.21056348302307,,
,,-475.8472950676096,-443.3435958398975,-460.3689630251796,-444.4261961713153,-440.5780895943178,-445.32019857310485,-447.9473900228865,-453.50014377570733,-453.22088582610365,-452.031797420981,-453.2290737740607,-444.8847724974671,-452.15799920258587,-453.5694123251138,,
,,-386.20743427517334,-373.91294332346547,-381.2198859026519,-373.59200753903497,-375.08737818403745,-379.90895365903197,-373.95684784876585,-380.8034538241071,-373.2145562403024,-377.47171873120635,-379.0953403218598,-367.9543460401867,-380.22834580869335,-384.7913461410954,,
,,-230.75078273204278,-246.67262231277823,-234.99865363077078,-242.4192515369777,-254.42512108115045,-255.49896745959506,-246.42469960069724,-255.2398267543157,-247.4853582891102,-251.79615538209862,-250.7786132016966,-242.489742541125,-252.93869069541282,-252.30353192239994,,
,,-97.1251535037004,-120.0627513119948,-106.24179630834952,-116.67010872682049,-133.8804455262498,-123.55816681368734,-115.85017492764672,-125.74470114105036,-123.91183448661948,-127.7358833118313,-128.21533628286045,-123.07691028812415,-128.25571043500952,-118.8968715744109,,
,,2.4752013860721434,-8.809208952879374,-10.01715123897796,-11.698784335585032,-25.953821945656173,-9.346725396208981,-0.5923429393032222,-4.441040376717709,-6.856048028365592,-12.035843256724505,-17.664442035759947,-12.904895663193443,-15.154629810611581,-4.144728142838872,,
,,91.03641847269195,88.7585128945174,79.41377694579066,82.99654734593904,75.8598604290668,85.96388255954861,96.20202173092267,102.28065356855134,101.43627489080706,96.82638657147854,88.50765964331038,91.51769914437838,90.52195742817995,91.99964624402995,,
,,161.71592155795656,159.06243945119894,158.4074558075916,158.29794230872912,159.13955614633733,160.07419953882322,164.39116792953834,174.07988389497848,177.3730959160544,176.98790168135696,168.93468030295097,167.3275991782494,169.93348495709927,159.68829493256666,,
,,192.79827283102662,189.60461964170844,197.76619046961582,194.89529943716965,202.13975838866423,199.05281802673161,191.7441591250755,198.9418244246729,203.63136125703028,207.54473891960987,200.33700499840165,195.22332170610417,203.14364078864082,191.26733875453425,,
,,185.5385628721391,186.96840927392714,190.67105574604398,191.87861692734188,201.69533352669424,194.5863954835288,179.34613531557966,187.0931713569178,189.0723491452747,193.92810512999773,190.44825837369874,184.94734081106557,194.47527006819632,190.5257581083252,,
,,156.62008963284939,163.46575831567202,158.44448097633813,162.96078646323252,171.7728018251476,158.77596662994483,144.22870635247688,155.87086838870118,154.26975851958986,157.12863978457472,161.50887301547613,156.6023354196262,162.0780548375411,163.32865291458816,,
,,114.51944787368674,121.36038565687072,116.35544325326748,118.00920781938441,123.59249096339487,111.29644317324838,104.87408830671882,113.9829034259286,111.37914290903736,112.10009830705384,122.86890928978757,117.41904866146594,118.34996912132641,117.03064593395605,,
,,61.06799902979169,61.956324572437126,64.0021607432905,61.98126073269533,62.81856775080293,61.94405689700932,66.96514560992695,63.122032018318635,61.60694815016575,61.7829741472829,72.81974598088,67.92541563940449,66.18034462032585,63.684410233985034,,
,,3.7797178911265092,-0.11795859883129367,6.327563742998109,3.2657187314191134,1.6022049917293089,12.788733956372766,26.149064206875153,7.901111608068376,6.571920623164274,6.734337273981993,14.566523439276992,15.873334377742026,8.278163231725628,11.619103956083933,,
,,-44.711794013883065,-46.60230250886845,-42.883372515497044,-46.713671862678694,-44.13121428753519,-32.51442643965713,-18.920134256128705,-40.569680850513535,-43.41689564795767,-44.3227400308639,-39.74098632844937,-30.24450978581075,-44.33405590378827,-36.971506668414804,,
14.1015625,56.0,-75.25893630624975,-73.25202195398995,-76.276020550976,-79.49102782981161,-71.46959693807247,-67.79674281393747,-60.66498460154598,-71.83959576348714,-75.94231676717874,-78.59366320331169,-78.14741132406402,-71.33704463197142,-78.26132181764372,-75.70188652814228,33025,1.0
14.109375,56.0,-86.97940560941298,-85.49775420569775,-93.04652144230887,-92.24275930094677,-88.2425431618522,-88.265662659354,-88.72555947064976,-84.79672235417742,-88.77954995226605,-92.36541374977402,-96.8241523149318,-107.1165354471075,-91.0627676638732,-94.74512112633207,33025,1.0
14.1171875,56.0,-85.06514302336674,-85.35022240742941,-91.47726455885841,-87.59707532518794,-93.53564801695474,-92.31263329369185,-98.37531936366958,-86.44953401885098,-89.58482888070844,-92.16172836819938,-98.98043157837472,-123.44938029431214,-90.75497487065113,-93.01439317507362,33025,1.0
14.125,56.0,-74.7289086180324,-73.10689099541976,-74.37058655110745,-71.86039003809834,-79.50429884659633,-80.98865926337591,-90.91103559593115,-81.8514616912006,-83.45411060871153,-83.26562406665391,-89.75888137639718,-105.1879147575544,-83.32723567396062,-78.42653581912111,33025,1.0
14.1328125,56.0,-58.37869262081982,-53.643544065159745,-52.32899489552588,-51.437692293130596,-50.44242343799776,-57.83261037246109,-69.41874089521707,-68.50353455839274,-66.84514534545747,-64.49662437997343,-72.27310699635636,-59.65351860161856,-67.66122502781553,-59.11831969298521,33025,1.0
14.140625,56.0,-36.90836011727326,-32.32306647162271,-32.32646395129913,-29.666725001545288,-21.48544022883874,-29.243671442265693,-38.49351518205464,-43.24596719152338,-36.69638612411832,-34.93629742554445,-45.65536094556205,-13.536313967595035,-40.96231687547795,-38.87679578305243,33025,1.0
14.1484375,56.0,-10.057039337715466,-8.584073001681176,-9.865599571346195,-5.489462251614654,-1.1378483296803807,-2.5398089858588975,-5.254571606454164,-10.43024488952048,-0.3463257187631683,0.18500218165632987,-8.20854015296186,17.976946378282534,-4.963368622516612,-14.32174432162904,33025,1.0
14.15625,56.0,21.14078014601391,19.256200547179958,20.129648819641986,22.27195593437176,13.50300637639451,17.872377981052807,23.029241641887467,21.826247358647507,30.282554545578193,32.74331585361902,34.858695975372086,43.47829727434011,31.98805825205301,19.647277489886577,33025,1.0
14.1640625,56.0,48.38345454065107,43.67418403703135,48.761038608556575,45.71269848261319,27.199298657900002,31.720096889996924,41.81498169041258,48.58210766582451,50.75492993798318,56.170359123326094,69.37142671940569,67.75860867117045,58.40394395172979,54.56447696569826,33025,1.0
14.171875,56.0,58.973163176207365,51.90428627959079,59.73120017412846,51.46144396759925,38.20842646234489,40.37730726120098,50.210893940294184,64.8690378648403,61.48537832656396,64.62394967090614,81.66112566855737,74.23839371816162,66.80819709130006,70.47427788134554,33025,1.0
14.1796875,56.0,49.59917501678507,42.73067576353726,49.806672893351504,39.395525132461614,40.64028214958809,43.55605928190779,49.301603841885,62.57207123242533,57.89294598640437,54.62270776302341,69.31272501745882,51.445870456225066,57.39645321535532,59.65695231571398,33025,1.0
14.1875,56.0,31.316979118704168,29.05717963101779,31.17817933858082,24.887544146680597,33.37485761186848,38.821757882117836,40.03242782028774,40.64150081580655,36.87879476112519,31.130665031851123,41.0662117680499,15.584164719558672,36.08465259878649,35.378547682145,33025,1.0
14.1953125,56.0,16.738628508278765,20.266874184277327,14.78066494026234,17.633648756816697,22.413232094695033,25.859525737818316,25.085311524620252,12.918515796732166,9.465219341669936,6.469199800186075,8.894756867097684,-10.141338659460374,11.69059956071996,14.114310819706333,33025,1.0
14.203125,56.0,6.891001153932407,12.021852181290782,2.4439786849640086,12.088574461993261,13.870310668024757,9.741001699309422,9.64119552307568,-5.516511091095239,-8.918328497774468,-10.212827707482177,-18.07719563147907,-21.715675365171805,-7.966246279903359,-0.41314620630481613,33025,1.0
14.2109375,56.0,-4.643725083414708,-1.8810245189470578,-7.566552826899212,1.3269907267345218,7.485139451196929,-3.373579095859057,-3.869627855335054,-15.119840748692425,-17.601560515091194,-19.48506060899446,-35.363060084943555,-27.68410893545223,-21.011804755381945,-13.475518847936627,33025,1.0
14.21875,56.0,-17.304456620650328,-16.04296812776238,-15.691598368982724,-11.443057081151508,-1.4689013227447845,-11.659309130071009,-16.185767814358698,-23.39780218399106,-24.4238263697124,-24.985913533473777,-41.3356430532351,-29.42817148685583,-28.91576715266453,-25.59206160973757,33025,1.0
14.2265625,56.0,-22.129977303189705,-20.07920104200454,-20.049766973014002,-18.345007541588075,-12.96699815070528,-15.744256286252792,-23.90650919553083,-26.64127529871986,-26.441182770387755,-24.245446158495284,-34.352738477426186,-20.144263180197896,-28.784855868382735,-28.58538429291292,33025,1.0
14.234375,56.0,-16.62810879398505,-14.944756671089593,-18.058325243560773,-17.610315977299535,-18.806058257944102,-15.304185275793984,-21.0038182390782,-16.24878185140612,-15.469544169024829,-13.479337720806626,-15.50488111939353,-1.2262559429173479,-16.93964634632529,-18.092347618379193,33025,1.0
14.2421875,56.0,-9.914536769902114,-11.67908404736113,-10.613431563642195,-14.450936377174557,-14.800245218010573,-11.24823766908861,-10.026847562177664,2.1044167406517573,2.7516160386410036,1.9214671867197524,6.333707433596487,11.599456982263803,0.6549462706987583,-3.063006044337385,33025,1.0
14.25,57.0,-8.630769514069101,-13.958154715574722,-4.082699348516698,-12.667227122828137,-10.191987549531547,-7.759650651130357,-2.2953792082594475,12.324379851405851,13.054909652946549,11.417178512933319,19.416264522594602,8.20658285102229,11.786673364291985,4.116370834671258,33025,1.0
14.2578125,57.0,-9.183747278350623,-14.47078980484153,-4.496642167181037,-10.909858263914217,-13.815499131527673,-7.954342414502534,-3.8978185145318633,7.654259210689787,10.248723450243318,10.915268613316556,18.85038922021323,0.26876046663572595,10.585350698925396,0.80322667918756,33025,1.0
14.265625,57.0,-7.311939142920522,-9.250349434921489,-8.533507009441735,-7.6662278989036565,-18.440162256565443,-9.04570046952324,-8.253074894308341,-4.567819209300993,1.444856479666953,3.8549103265369524,7.681389573228287,2.322594337379897,1.1055124639093066,-6.852923080423309,33025,1.0
14.2734375,57.0,-3.623737656275253,-2.2717139685081094,-6.711037462042199,-3.51755607750745,-12.797335092682133,-6.177932855036488,-6.60270570346853,-13.368914888001797,-6.00416754407992,-4.3781602588281885,-5.964398622181008,10.153086732279036,-7.374276714569135,-10.457222555337069,33025,1.0
14.28125,57.0,1.3035100084365183,4.238169198264615,1.823393163668598,1.959504993342975,-0.8152968682793755,-0.37840013034667663,-0.9578476040486521,-13.757734784955801,-10.87585365466255,-9.760664937814013,-12.05622882212701,13.479595881859439,-7.977619125507687,-4.7469491917890565,33025,1.0
14.2890625,57.0,6.649941797867243,11.523367281094195,7.375101315419144,8.796998726659112,6.785157056063127,3.1772696104003586,1.0518621384801605,-9.287816729646238,-14.511498773098396,-11.102183269709954,-8.276243712282806,10.761759708107164,-3.5927215669151593,5.306926132881642,33025,1.0
14.296875,57.0,8.924112754526604,16.77319677117491,5.740460884907961,13.052505370193913,10.638575715855467,3.554166347919434,0.031735606296564356,-4.756246582167961,-14.21963851465155,-8.565422747759811,-2.9047296100334705,1.4141208957234,-1.6283563988965568,7.596543534723978,33025,1.0
14.3046875,57.0,7.861733445519306,14.800580870179445,4.44706948655282,11.444565172991062,16.074090437824523,3.7764451408354063,2.402079507868663,2.0817256470660794,-4.550590244475146,-1.6925307897198394,-0.29243602055909435,-13.018863068847168,-0.8058971536107293,1.1834003739900396,33025,1.0
14.3125,57.0,8.001351434794628,7.260481313603663,8.410606802142055,7.035888512702613,18.68963345434075,5.140253647445888,8.249015150031525,13.426233723898648,11.618400051401792,7.4260838470705295,4.445961634975532,-20.28300384093191,4.887495119713336,0.32080979087011485,33025,1.0
14.3203125,57.0,9.445290870223062,1.5151465858000392,11.065117321300775,4.126856479773096,12.274528170427075,7.218409226886678,11.997284890664673,21.16472364248787,21.354969816694123,12.721304289465579,10.181529485866136,-13.667847129694124,11.696770171523497,10.720009913847207,33025,1.0
14.328125,57.0,6.6999477038582,0.3779676451262759,6.861134349965226,2.043676646586661,2.064876299287505,9.033635408465557,11.04044666116701,17.142646494641724,18.01202441077767,10.994112930646892,8.54426099813493,-4.614911055120899,10.897953281855521,17.908708712808973,33025,1.0
14.3359375,57.0,-0.49846699964892593,-0.33744523556865147,1.4909432344687588,-0.9951631884921426,-2.2326348445442505,8.492392032872814,7.378596282044342,7.008406526789798,9.699785255541343,6.019289757987735,1.5219165710308715,-1.0140078812876112,3.901138715074353,10.664388763900476,33025,1.0
14.34375,57.0,-5.63217406078347,-4.547918437128843,0.03313073819974477,-3.9868935510905743,-0.9742189106237333,4.793229653770581,3.6139651554653938,0.14135970808881382,4.827509486430841,2.327888767795514,-1.1602339001910167,3.764268387842179,-0.8894519610378353,-1.6953696161650527,33025,2.0
14.3515625,57.0,-5.966592243318033,-10.628982930129396,-3.0333561816500776,-6.075013019271495,-3.3629219258815084,-0.09035723476844737,0.042682647501251836,-4.61694308925361,0.9684934983516484,-0.33808365703441723,-0.549126115778634,8.900153816886714,-1.4083850713813746,-6.898870408251412,33025,2.0
14.359375,57.0,-5.282158370642392,-12.984773415719772,-10.463242574074371,-6.731824664208503,-11.648212037110426,-3.8870090810292623,-4.181962810542274,-10.757940882886416,-5.658003995726318,-3.4617514946102403,-3.686382300286141,2.989776780622634,-2.104996387030795,-7.3501917365153275,33025,2.0
14.3671875,57.0,-6.02282741742934,-8.21171019829481,-12.79555304799618,-3.8403970766638054,-14.740518511954207,-5.710239313027131,-7.980173393995003,-13.399605612004208,-11.211592692247862,-5.102481027947277,-7.003739760702345,-9.96729653192753,-4.534990732561326,-9.497569662073047,33025,2.0
14.375,57.0,-5.732158478803228,-0.12687178065284854,-4.504769125745824,1.5937490472748266,-5.494022008750733,-6.092052763506544,-8.830865042453254,-8.027229727548246,-10.466121219358996,-3.132249450024929,-3.0173336939556776,-10.224138648625,-5.350871800181224,-10.339904518028902,33025,2.0
14.3828125,57.0,-1.4881425153490113,4.609681094262953,4.478114313570416,3.6724514600345373,4.903921108030019,-6.083596106268246,-6.235602008439045,0.3727388404168721,-4.946526229617049,-0.4287154337764605,4.256166905100031,6.719139047768721,-3.0292526921891323,-4.777729643509076,33025,2.0
14.390625,57.0,5.080321427159262,5.356032763660792,4.287226827193763,0.35640741747626237,3.3657841510369053,-5.592156254094704,-2.8228445249225445,4.601539267614655,-1.2997012108527315,-1.2590825926631055,5.394219261792188,21.7090067716468,-0.7957106756518186,3.404001792868783,33025,2.0
14.3984375,57.0,8.328797211146352,5.813896648797737,-0.5699059690815318,-3.1089040525700398,-4.171209679863651,-3.759102002711387,-1.0976599845766373,3.569030769936532,-2.7654430624446604,-3.898904736317647,0.7466625617030758,19.127724946925653,-0.8821839767383324,6.42609699040635,33025,2.0
14.40625,57.0,5.000802778458663,6.04652590414446,-1.0732128498616902,-2.202742419817028,-3.558327460848787,-0.5774956496190242,-0.12033918136582145,0.05305896470973437,-4.600292654661018,-3.22441055033336,-1.9379933339095317,5.771680009583704,-0.9734937901109362,3.357658255322562,33025,2.0
14.4140625,57.0,-1.385762885325292,3.6788037391642945,2.7435142768992193,2.1373399270090943,4.595562803795147,2.60059824406342,1.691317668334861,-3.328803915559149,-1.674373624511233,0.34724517874222727,-0.7497750323134511,-2.588844203484939,0.7293110776315785,0.007850761902730596,33025,2.0
14.421875,57.0,-4.813804215017711,-0.1514061249518477,5.00894505917357,5.845918747221816,8.4891446281178,3.4474868962779226,2.3947869123848307,-4.40389490297288,3.0994520381764517,1.5874987705849861,-0.20196937614164767,-2.034628760493348,2.4422295499140176,0.27383272347351806,33025,2.0
14.4296875,57.0,-3.5601385876913554,-1.8431655903137028,3.3110076003337525,4.94308786900865,5.271710651272642,1.180052347516252,0.099137605286586,-1.8208969339916194,4.444274457676997,-0.47326721221030255,-1.168514892451583,-0.864432505142986,2.9862469192161,2.275639999091723,33025,2.0
14.4375,57.0,-0.3470624029317122,-0.34156623281890575,-0.09686520236856211,-0.3784170619458962,1.5594537723137591,-1.2358186491087082,-2.390440304324315,2.903519892491758,3.0883957759622405,-1.5472488487062748,-0.2778557366233514,-5.432547242187482,2.876069957131051,2.531565731866408,33025,2.0
14.4453125,57.0,1.7454735998691717,1.023006389248735,-2.2298986209232368,-4.668241129603828,-0.3088863533033219,-0.43119969733547237,-1.305892430136666,5.628544733672314,2.2250202387926095,0.12460757221212759,1.9033456799832749,-13.668176963082672,1.2047419148415344,0.3957367020361602,33025,2.0
14.453125,57.0,1.1596196858894956,-1.4284446581843753,-2.429684457812712,-3.9520536596137674,-1.493496283090991,2.9222075640150393,2.747420696646344,4.3511512400402665,2.2109038329138997,1.987814067468051,0.9891726921593857,-19.643694107874225,-2.2379701269186825,-2.1780206848214476,33025,2.0
14.4609375,57.0,-1.4737279474553588,-5.446144859176954,-2.755075893402392,-1.1149494008690937,-0.5474585633241986,5.445318296859583,5.947837176210257,1.3888254424107487,2.254408194621277,2.3593508749040524,-3.511519392597819,-17.605711232809924,-4.330729051561619,-3.1913340089151916,33025,2.0
14.46875,57.0,-2.8974881568488513,-5.508564351120896,-4.257788783327797,-0.7788409828458498,0.9817514813206714,4.855025013719086,5.703814282958206,-1.2288537125628096,1.4161802671410015,1.4159502445240406,-7.216401199824347,-5.666532832876555,-3.4340271654461816,-2.2085574993908352,33025,2.0
14.4765625,57.0,-0.695612317682972,-2.26672852181909,-3.982769546753275,-2.113831909204876,-1.6127088395874125,1.4870198320644619,2.718626389038576,-3.180439276440353,-1.3672707021859196,-0.5351396114938609,-6.590413172512001,9.38516736818788,-2.036831968177296,-0.3478977084766228,33025,2.0
14.484375,57.0,2.466732111525289,-1.1449830424508036,0.1510345590810971,-1.354006508955706,-6.242668306904406,-2.0301258103722546,-0.5709704136585714,-2.205044648223563,-3.585137659360484,-1.4482542042064352,-1.4313483659781383,17.31046825230115,-1.106423692975909,0.9440765363404608,33025,2.0
14.4921875,57.0,2.1858250109559236,-2.395796821067435,4.272670918039481,1.084786624276859,-6.244854452059926,-3.0825928040793826,-2.3472523947273487,2.367630999368288,-0.779578306892617,1.2559582264404412,5.676773327562643,16.06817566093541,1.688193132428495,1.0731790917256347,33025,2.0
14.5,58.0,-0.8558025829312044,-1.5623776144122843,4.112694673915527,1.7008629102992643,-1.5976338321455188,-2.1970634883160898,-2.0482970733986434,4.890813667827899,4.827333137642228,5.424981193497487,9.42277884591465,11.25952295173009,5.6773309575276585,-0.020832831775365435,33025,2.0
14.5078125,58.0,-1.9616963115091295,2.3449186994051985,1.7941445099883992,0.8533286136036651,2.346885960876861,-1.7924488789295765,-0.49913148348025516,2.011003678754321,6.034287577834192,5.838597871817768,6.120651887260976,6.667175702966375,6.375100534985776,-1.6618557907900993,33025,2.0
14.515625,58.0,0.7306537744896104,6.259504318295313,1.7696835903130363,2.306935374547052,3.7774391065435395,-1.9290164490288646,0.04502811113235339,-0.8994893480063553,1.8524950629556258,1.8072557983084323,0.7231764707638177,2.211961276430827,3.3187058873884183,-0.892245544822245,33025,2.0
14.5234375,58.0,4.021759558884696,7.826660179270263,3.565896541678839,5.717947204794456,4.3741832423302895,-1.4371026694490894,-1.9998840496459565,-0.38625654418528654,-2.5513155360218605,-2.1244308033802355,2.326251127751547,-2.2070351164052937,1.6498695680847817,4.262669117836396,33025,2.0
14.53125,58.0,4.086605237453782,6.488761347035094,2.9383334653688564,5.8007320882884414,4.075569196988212,-1.2622412064719413,-4.6215078356561605,-0.1657572533199243,-3.9975670091223208,-2.476983145795444,9.684392695891958,-5.5724325175696094,3.479974036761263,8.7434318284173,33025,2.0
14.5390625,58.0,1.2107296388389273,2.5950591592159213,-1.27290667072009,0.5295645826844151,2.240361136644097,-0.9417145233079367,-3.3103546603570067,-0.840798873340276,-1.991582772707062,-0.46469200948335754,10.740627549688284,-6.860121303397349,4.051083884961557,5.596111944802956,33025,2.0
14.546875,58.0,-1.3443952603633278,-1.9799562498866834,-5.0526544219004705,-5.304631794065713,0.8183691507342132,2.939217400196725,2.952876244048042,0.8300830513139914,1.9203650394432543,0.1865408247161895,0.5577940245839841,-6.063293761011266,-0.9119860633381194,-2.3956894576021597,33025,2.0
14.5546875,58.0,-2.0061150116033133,-4.424246020770312,-4.771968916020484,-6.856463134465784,0.9963953475688072,8.372405902232984,8.147080535099406,2.5110915585682534,2.775523994573817,-2.0891617319111475,-10.888530952489447,-4.569410808464724,-8.288033647576668,-6.162924697990263,33025,2.0
14.5625,58.0,-1.543598878371867,-3.6311526449169946,-1.8085582650760585,-4.446594104602582,0.5389181517753485,7.052736994789754,5.616786274301916,0.24284661199169477,-1.479698207480567,-4.731355007242698,-13.266857712636181,-3.571864212964428,-10.616331070275166,-3.8587100002598476,33025,2.0
14.5703125,58.0,-0.47038237245016035,-0.835464808198978,0.6662294460256248,-0.2500635749739075,-1.5348085961489915,-1.9599004461966558,-2.308756003843669,-3.367278573365283,-5.186357798439602,-4.458429285184238,-8.644841333215865,-2.1634423634254887,-5.409912927325351,-0.9240376571550968,33025,2.0
14.578125,58.0,0.27499950195019096,1.5426610937688991,1.9610640983814136,4.009734409055426,-2.990533614395261,-8.679007670165603,-7.162801041231106,-5.300983042474613,-4.753149996486101,-2.419028818979598,-6.063828925184239,0.12864080155829072,0.39420465423366124,-0.8863373811666122,33025,2.0
14.5859375,58.0,-1.7029842955890757,0.5275401465644336,1.6708203252583473,4.798116051436409,-3.4123195928100785,-6.866718768322926,-6.4791653347583065,-7.630709873391041,-5.411659869366659,-3.578921951295783,-9.620961221861606,0.03456557700309304,-1.77267444788626,-4.104421176253055,33025,2.0
14.59375,58.0,-5.614588317422303,-4.041167076046435,-1.2727433006438815,0.35930742914804625,-4.626310858021199,-1.2591328512074398,-4.342535667811532,-10.122352181871847,-9.509827227828566,-8.27723062000581,-14.339913197326993,-4.210170785236926,-9.89239766626973,-8.978151376950649,33025,3.0
14.6015625,58.0,-5.738252145352192,-6.644967742860231,-4.138036215373887,-3.474582511429375,-5.40322037822196,2.0022046187064575,-1.5144191701138254,-7.35635605650603,-8.69880211357551,-8.533242382655757,-12.501097906178842,-6.995275438785768,-12.160214477329546,-10.02984044980252,33025,3.0
14.609375,58.0,0.022426131241772396,-2.8248110120222805,-2.352071926811604,-0.7140529176420216,-2.8981394072047806,2.1037550732634003,3.6471793946867876,1.9319265206240885,2.298239518621017,0.7601096260352591,-2.3243539945463425,-3.2472451501550808,-2.1549199505231513,-3.0523113173899787,33025,3.0
14.6171875,58.0,5.551655429784859,3.209639633820032,2.7657847068261674,4.125261774348715,1.1292071106778963,0.41392667595994226,7.5337959924465565,11.289475512183031,14.575016129474704,12.303242960152119,11.27001744346478,2.9715468501070745,12.409828736078069,7.260596702814041,33025,3.0
14.625,58.0,5.563707321723285,4.503348231201969,5.477551728922265,2.840867077064331,2.531502268789737,-1.9384518995571085,5.408352064184555,14.305699757774107,16.665410369488683,15.609281456845778,21.135238783296188,6.536918089220549,19.187320667196786,12.33369848758231,33025,3.0
14.6328125,58.0,2.651164968471491,1.5248802497450384,3.4846793570119132,-3.668012593103313,1.7095355262008667,-3.6634658390703407,-0.7308083895990336,9.422774661359654,8.390218663813968,9.948390710249171,21.43406359653828,9.091140433559602,14.367981653322786,9.872978874180717,33025,3.0
14.640625,58.0,1.1668416365402692,0.16625369961313652,-0.5108358026741513,-7.930460777268394,2.1287596783329974,-3.2826145829012177,-4.8833854024098855,0.17201172311722246,-1.7780685019880735,2.415542863576192,13.015625338856992,11.163960511374611,4.185196253241827,4.306555685674965,33025,3.0
14.6484375,58.0,0.5550550090440112,1.7735404712414038,-2.4247379539774983,-5.939196566584528,4.243087437096477,0.4818222359694886,-3.8770543678726455,-5.154814419491757,-5.912213161813753,-1.6084489609901595,5.197663759954835,8.776715158253367,-2.102533571168493,1.0460429772782334,33025,3.0
14.65625,58.0,-0.9794635209916436,1.6205299919596428,-0.5483291318519008,0.4314027004523098,5.653098833210095,6.258756616861106,0.30727494602035677,-1.525540577590263,-2.5028717498848465,-1.9455180800148497,4.8353321442587145,3.39768829867252,-0.3989452960584572,2.0905963036151434,33025,3.0
14.6640625,58.0,-1.783553873077679,-1.5927383002529751,2.4015003635715004,6.372798570147026,4.425824967093007,8.920115432455248,3.104298819858073,4.56047755962571,2.901526328854132,-0.5327932387029932,6.793306651231376,1.5920809033812304,4.068926184958656,4.403659502585157,33025,3.0
14.671875,58.0,-0.21849846459301148,-2.444534502650839,2.4284049384809947,7.642050710575745,0.013500252109452049,5.350431578610639,2.5501929700479167,3.774634184871914,4.510699367768936,1.2717091911041223,2.57945618620802,2.6592797673427384,3.1746577299332017,3.3758154098520805,33025,3.0
14.6796875,58.0,1.3744667297069384,0.8740580909052369,-0.5914106671598773,4.06596806448934,-4.864906422263772,-0.24160767769961922,1.183478359275668,-2.4122437892118,2.5576984908654197,1.7904535202075778,-6.459994745615191,-1.149554306404582,-3.5549759897843956,-1.4449752432686722,33025,3.0
14.6875,58.0,0.17582339487275078,2.282075552946978,-3.697589679629587,-0.09680205507358153,-3.960392272187619,-1.6269206050316143,1.4370999379179636,-6.093434003535577,-0.635090370269296,-1.2243915515300046,-12.07121980023507,-10.961311028131902,-9.819194946179593,-6.3994210313036035,33025,3.0
14.6953125,58.0,-2.3300990902036887,-0.8968490612630262,-4.563682074914809,-0.9471574007735768,3.3354156172924405,0.30202730447511783,1.363031718796634,-5.704187903192647,-5.4504943050018255,-6.71917426035084,-11.728311120378194,-16.847680530440996,-11.319767225644043,-8.74870350158217,33025,3.0
14.703125,58.0,-2.6409139160736714,-3.547290660585446,-2.038208276066115,-0.023851790035479326,6.327683254889479,-0.39129395339399764,-1.4459224184125503,-4.616113873790113,-10.598112444769555,-8.933854306823093,-10.347535860860845,-11.349951846006235,-8.096066864634096,-8.579343821304988,33025,3.0
14.7109375,58.0,-0.3573285223964717,-2.8889751389167486,2.5841570878509827,-1.3848968390144591,-1.6947946524174569,-4.436215622630797,-4.038224581391489,-2.4272046954471023,-11.118903580674072,-4.927878756651069,-10.313128861264062,-0.25193263103631125,-2.4566174572101005,-5.821881119084992,33025,3.0
14.71875,58.0,1.8998477996462384,-0.9103145003699211,3.855414391528967,-4.259909330053944,-10.099035343052876,-6.455680269200656,-2.0607357907713606,1.8956664289798653,-5.726630250498815,-0.4754978008094355,-9.050044151370926,6.034682112203797,1.251889023879741,-0.32556422208668323,33025,3.0
14.7265625,58.0,1.3101387714274892,1.4351507130932788,-1.7230986717125205,-4.793136327498146,-7.43830175275842,-4.025800662927551,2.377024115656809,3.7707821803772816,0.9901519395480989,-1.5427496548619075,-6.781430816952067,3.958370453626202,0.31575002500837,3.1848074127906045,33025,3.0
14.734375,58.0,-2.892690375588245,2.9980575057616505,-8.00992476862146,-2.997825822751537,0.04334882197296963,-0.6785552564772956,3.4227422713710496,0.3262024802753416,5.488669282642746,-3.8368824856939767,-5.6234751522228805,-2.8753435420447886,-1.6550105052043165,-0.8683182826192279,33025,3.0
14.7421875,58.0,-6.514956679291217,2.182799979894341,-5.686241560308375,-1.1062894528876654,1.1656197172123939,0.4792681303694195,0.885126702606243,-2.4950998910926927,8.025201983772263,-0.07376311062165541,-2.0215484452571104,-7.406684908508851,0.14561584486368417,-6.6823904529924505,33025,3.0
14.75,59.0,-3.372554298094755,1.0169034763317484,3.8728044005196267,0.8836155233280181,-2.1349105130643267,0.5664228688902853,-0.09565039476680681,0.7049129764713058,9.367847080602871,6.966578233296701,8.005960456721596,-4.585634040879356,4.670170600969698,-2.2030455629437995,33025,3.0
14.7578125,59.0,5.05973692275127,1.907135129937572,10.07508567690914,3.3065946192934916,-1.8337924128379512,1.4108628711174305,1.3280431511555548,5.946627656608399,9.043546136931909,9.370933488325136,19.556939884420686,4.341299335942907,8.796017130838948,10.816572351533637,33025,3.0
14.765625,59.0,10.101533569222212,3.1336350323233404,8.060531813036647,4.822218496178252,3.1856823033512,2.3394959071900843,0.12198235082040298,6.6755812222996695,5.6878136746461365,6.574289865455185,23.862325392439033,14.740329126720098,11.301461553772867,17.320895313915912,33025,3.0
14.7734375,59.0,8.195927868707287,1.9435327535052096,2.949623803377108,3.9189438751926957,8.60006566704321,1.826042805249827,-5.174685722298477,2.1400092824984256,-1.3058940741709364,2.896460616540679,17.6616688246355,20.49204874279117,9.27768604398014,10.661130058480367,33025,3.0
14.78125,59.0,3.6431167518344694,-1.6851099588419487,-0.0757110996100323,0.943184925281983,10.002736020327603,0.10226092864978398,-8.771631788443045,-3.676815968492832,-9.017294636525847,-0.823458508696362,4.585286738372844,14.834163890571645,0.5894073757708895,-0.03243648692669865,33025,3.0
14.7890625,59.0,-0.8559564403921343,-5.004742919632548,-1.5455365271301815,-1.2404289442149548,5.460277820512189,-0.7761401991111541,-5.895598877306625,-6.538607396530182,-12.075158219949358,-4.9081265756371835,-7.881626177533491,-0.3140245491468363,-8.681542444680446,-4.718583578309193,33025,3.0
14.796875,59.0,-5.891898871160208,-5.302049715154013,-3.5201472825584545,-0.8692966059493727,-1.951453588222705,0.8824938131408402,0.8843632227897018,-4.734843845130442,-8.090532168824538,-6.0197763255800965,-13.776859884366502,-12.122734365336683,-10.037876989413633,-4.317702139637703,33025,3.0
14.8046875,59.0,-8.827587917805317,-3.1796242592703976,-5.160251626079386,-0.4792634670639728,-6.8310159590839135,3.8829042979452026,5.932345479664775,0.3093928922716316,0.13883657673636662,-1.4933738078540557,-12.89679874701396,-12.758860925889095,-4.66111004009835,-4.663285512610585,33025,3.0
14.8125,59.0,-6.007939434975327,-1.030771990262636,-4.546756869168888,-1.9494989678490242,-7.202898010917906,4.651775306094109,7.20443834178981,4.888591496060357,7.249099988453182,4.399692856325132,-8.466595574272759,-7.901898030688173,-0.5604237457015131,-5.616307728199573,33025,3.0
14.8203125,59.0,-0.5443632597134496,0.561143328165727,-2.6918903742670466,-2.580256841129426,-4.620211345254674,1.4236674530869067,6.022111277133305,4.758957185210548,8.019540250792971,4.0781749874048785,-3.7277769026136127,-5.513426645921456,-1.3249514092263581,-4.274396356243599,33025,3.0
14.828125,59.0,0.6535214769446327,2.000810471616731,-1.8578172635404826,-0.9571406669928848,-1.8364823808518764,-3.5573502698443917,2.531011453262252,-1.1252600579055212,1.0233041002475858,-3.2886140097034513,-1.394284895171097,-6.089198469803534,-4.177304926947869,-3.574963305242406,33025,3.0
14.8359375,59.0,-2.448789622305668,2.9956526636962195,-0.7092329133443229,0.12964535817161504,-0.7591326938875937,-6.783888528008887,-3.771968262624256,-7.77854346940407,-7.401771482129718,-9.211355497218207,-1.2248918400695032,-5.292279001861715,-4.479852964770885,-5.5293558666693485,33025,3.0
14.84375,59.0,-2.475957527064921,3.4134051608720597,3.487919352169314,-0.034526478546851536,0.31151641707795363,-6.0968980938748984,-8.55737621439323,-8.30728850012649,-7.6822665801263526,-5.767941908268256,0.5729614896245891,-0.7303090392140348,0.5519221666820187,-3.5484614344669723,33025,4.0
14.8515625,59.0,3.3905121844577764,3.183559512120027,8.113429516948358,0.9795413391055661,3.7048424529781414,-1.3885518964391963,-5.242505627540396,-1.4875465175993554,1.2694053081049503,3.6423572099449046,4.816652138864228,4.791561536533365,7.949049332199621,4.876345380608726,33025,4.0
14.859375,59.0,8.072292507921958,1.5002643418168304,6.9078819043083115,2.4897183578075044,6.413507969705307,3.904451132528635,3.9950734466944766,7.011482898385054,9.5133043975721,7.900309570079017,6.195291313512087,6.696374932008908,9.782280544105149,10.013782113951592,33025,4.0
14.8671875,59.0,5.777423335873991,-1.4643848716572734,-0.323745898491012,1.5911897061331928,4.061559789882168,4.828133750970721,9.00534097325604,10.318127905920576,8.347115894892568,3.409717685282942,2.0824094802934496,4.557615850665968,3.134924539175188,6.253203518256214,33025,4.0
14.875,59.0,0.9986763897677804,-3.1608630187821802,-5.776422521192146,-0.7165294753397262,-0.7456692845597672,1.7110506641303687,6.004809015192649,6.173996855937077,1.0115703401423843,-1.1203321438750322,-0.8437300180447096,2.516733793014012,-3.7464982693379767,1.1966248536219979,33025,4.0
14.8828125,59.0,-0.3901044537735743,-2.0038327544447156,-4.59428815396214,-1.4591523931189982,-2.4403220800766547,-0.4189226369925194,0.41234935094203706,-1.300075795562293,-3.434339853012119,0.9576622031927542,2.894391284779985,3.6705060561908596,-2.364575917874049,0.8813597805763465,33025,4.0
14.890625,59.0,-0.7137076674872986,-0.5144944237723621,-1.5417883483934816,-0.8702411835579653,-2.2905966971442098,-0.7347257152764257,-4.120623713794927,-5.358548733110794,-2.9950574362156317,4.037487193726037,6.338251794421893,5.529505516783928,2.905716383001433,1.6452929100008333,33025,4.0
14.8984375,59.0,-3.0542210599279827,-1.223984467676459,-1.5750055075044713,-0.38229657131256545,-4.159835937529394,-2.1025811992320627,-7.031688870113243,-3.5173544521454403,-2.089418063010953,1.1261493757258734,0.8344102335625649,2.921795041238397,2.036681904843718,0.015595710034787658,33025,4.0
14.90625,59.0,-3.4815742703528088,-1.7904026751805873,-1.379641576226419,0.36141810975085775,-4.406590580566302,-2.5177537006278925,-5.067054883712501,0.23235767724737855,-2.324556558363298,-4.668436363701005,-8.304832661587085,-4.198983557831738,-4.428497287038766,-2.2485704789979195,33025,4.0
14.9140625,59.0,0.6791953437587068,1.20863952185762,2.5285598987024542,1.592653479086323,1.2681005303928146,0.9575844936098292,1.5325555345085746,0.7424870876707246,-2.634932119844649,-6.856415659316411,-9.559381849567231,-8.814123730521274,-7.220701179171101,-3.7484371075496057,33025,4.0
14.921875,59.0,3.840518801411278,5.522543041398777,5.843282724992477,2.310765765999676,6.301004214513952,3.312393891643268,3.9958550543696276,-2.3365241365154503,-3.1785871020607175,-4.64386084667872,-2.247816850526746,-5.321592053392976,-3.2047799839650537,-5.1554724289894125,33025,4.0
14.9296875,59.0,0.790809612368875,4.794282092100104,3.9330190088939645,1.4234487041793074,2.915982611280853,0.04044814628709048,-1.1622301543680322,-4.190183549864955,-2.620672888998982,-0.3071861825796418,4.755643817604721,1.9800158528383918,1.6973342223557921,-5.516846378799059,33025,4.0
14.9375,59.0,-4.988599808830045,-2.315968529780733,-0.9279022724450954,-1.6010314082450918,-3.72675288199099,-2.79171060548569,-3.8737866077797207,-0.7275571132300769,0.9916540088687782,3.727564119808477,5.05535070977983,3.062491237515971,2.517908821710847,-3.019986607666368,33025,4.0
14.9453125,59.0,-6.877979040718714,-8.29724013713519,-4.554025990922469,-5.511157315120158,-4.585339430053125,0.022977738396832592,1.6700478286599747,4.623315385229432,4.592645046739534,4.103059232651688,-0.4628577105402627,-3.998154739028479,0.48277253951758325,0.675533272943639,33025,4.0
14.953125,59.0,-3.655172847159605,-6.405259421190351,-5.601976997351898,-6.959950991872219,-1.0475890132374701,2.331402554544894,5.222788994572539,4.077810386667409,4.006823225498948,0.6539455422593932,-5.421567088037108,-8.404725719182466,-0.8958294672530513,2.136450548828421,33025,4.0
14.9609375,59.0,1.4274287777772798,0.013617888428058222,-3.553222979080573,-3.162812941393298,1.408414822913869,-0.5199995429279625,-0.13297047025588427,-1.9374749944994818,1.784261559721628,-1.2465220417228693,-3.5358472889228665,-1.953053113295013,-0.024772321100755335,2.286829153564568,33025,4.0
14.96875,59.0,5.586135532158707,4.287286082188643,1.3784831796219663,4.774279865690943,3.3546563428677985,-1.6479383619792287,-3.5800837664623657,-3.1395886584367645,2.940971385558754,1.797592521172021,4.18048382193588,6.894054052632313,2.3506030417462114,4.837102308556993,33025,4.0
14.9765625,59.0,6.785955727171725,5.693796079781052,5.7889125477270795,10.642162430817535,5.657133587282118,3.417803864627871,3.144286859396331,3.8500278914113863,5.580273250587453,5.473418881215224,9.677716770754643,6.247813951949027,4.364030126380854,8.000755854949688,33025,4.0
14.984375,59.0,3.8200469276724363,5.4965350189472275,5.732778082754862,8.107260965001132,4.549903044989918,6.158495688193625,8.665072828129013,7.549701459894351,3.1592990398709446,3.4310503712340505,6.878934580740676,1.0609014379777193,4.34002824821205,5.653957608637583,33025,4.0
14.9921875,59.0,-0.6443981983288865,2.5187593165793487,1.9836815650552353,-0.7286542760377017,-0.6455302428272205,-0.4839538159281176,1.4322126330055056,-0.22924247678353993,-4.715285142894473,-3.803734908845101,-1.5412622980930593,3.0971248361877883,1.6115186005022224,-1.6316866004498678,33025,4.0
15.0,60.0,-2.336735268613225,-2.5402959301831913,-1.3818277076201753,-6.8296600688671845,-4.598943054168373,-8.565082521095746,-10.201291896678669,-9.882026291755537,-10.48281094306492,-8.58123683766523,-7.318853071149732,8.7752969734062,-2.902368327397838,-5.962951222632455,33025,4.0
15.0078125,60.0,-1.7993743332248044,-5.320605396041728,-2.8565273766966044,-5.397713207125122,-3.966019704591247,-7.0234200951179275,-11.615363732689062,-8.60158089589467,-8.595344892549676,-5.443028176894813,-5.5531122879760915,6.445108453338975,-5.870126127828712,-4.2499836127663855,33025,4.0
15.015625,60.0,-2.189435335657464,-2.8720465375653816,-3.4462266366457044,0.0914929938861917,-1.1079202174868783,1.634380999684197,-2.2795439926857597,1.331998207950278,-1.3982079767850877,1.9368863428907304,0.6497448038302167,-2.3450712558163787,-3.7570783647246913,-1.5489780876895054,33025,4.0
15.0234375,60.0,-2.51232590671286,1.9304690426398565,-2.774745414911777,3.280099205318166,0.2497811500832512,6.504883754077994,6.80163911452631,7.696183610076048,4.819734469027978,5.567544413786933,3.64331318227174,-7.445419480914538,1.1887909222788977,-1.9224090368731481,33025,4.0
15.03125,60.0,-0.5332753749582224,2.676951984461752,-0.48055475559861804,0.7810533322021058,-1.2066546063323642,3.685604486958553,7.319007636515806,4.057434757282834,5.0341879696480305,2.6134954268187585,-0.8155459843189163,-7.645698637138892,1.7491578092336084,-3.7596771302611103,33025,4.0
15.0390625,60.0,1.4908448542510797,-2.197001554814122,1.2836929230638674,-4.089159824693624,-3.43615509235687,-1.5975941223214534,1.3005814504669502,-3.903103260833916,0.13214059067324513,-2.085701462977653,-7.170935103474164,-6.69592779002555,-2.932792824016019,-3.029524185214015,33025,4.0
15.046875,60.0,0.8035277529793348,-6.1285318602549665,1.0601778243641746,-4.555803356401398,-2.0358004879727787,-3.5103975287839972,-2.698595975294552,-5.813147440613875,-2.378560497838052,-2.1519094441532616,-5.357574884600311,-2.5380814445211115,-4.440890022857928,1.8149144615940003,33025,4.0
15.0546875,60.0,-0.9292574831119964,-3.440187972995531,0.7659594495338808,-0.24293264980164508,4.00727617226994,-1.2331928309347546,-0.6877993682057877,-0.2258654602575234,1.1308433821349695,2.1179545852303647,4.001563929838923,3.5361921130935343,0.9002389792652252,6.127857757571988,33025,4.0
15.0625,60.0,-1.0602223551370855,2.612799021173487,1.7915589345831364,2.4010656135893385,6.966430536291838,1.1142900424996895,2.2500551162551403,4.467314839807827,4.088108133432726,4.036912303473471,8.819969409013112,2.3198609415404547,5.509134754523785,4.202506157273589,33025,4.0
15.0703125,60.0,0.5739587587846557,5.2215792046820155,1.67750435836669,1.2461884090980249,-0.008395302301778429,0.013109331087662213,1.1542554996222947,4.302861331925243,2.3138884048138237,0.7594681294613537,4.159401054676636,-4.884547109281996,3.929068499839744,-0.21596988091594937,33025,4.0
15.078125,60.0,3.2328700103573738,3.6242353440067205,-0.5577082030867899,1.04965494473025,-7.84222375293723,-1.582965781688202,-0.8266494109157918,3.8923934166362955,1.681415587682494,-2.306800976913806,-1.1406241834560973,-3.580402613633723,1.2860172925495306,1.4244797428305418,33025,4.0
15.0859375,60.0,5.473757974137655,2.5788447571304403,-0.38887823267828026,3.8039822724720693,-2.6582047689293233,1.005192289368324,0.8730571585968363,5.068676819490577,4.825343220759478,-0.7778397045890699,-0.13189379865485762,8.119895736810122,2.573261410364779,7.006436675384862,33025,4.0
15.09375,60.0,4.47742334382643,3.6381433857283554,3.5887946622997617,5.510769324735577,9.20576323318555,5.233388325034383,3.4008891012257294,3.409016274075995,4.339295409314417,1.5718291715801058,2.8020228191528673,13.742626115321897,3.7760365415368256,6.056005082919896,33025,5.0
15.1015625,60.0,-0.32499249406885156,2.960718077231718,4.420124373829239,3.636388634307991,9.63313231767512,4.841848080328759,1.5600402328974639,-3.0009598950916683,-3.824640561155533,-0.5028320341643706,1.3706130297174042,4.973748159700833,-0.22484610153493634,-2.9206258224567705,33025,5.0
15.109375,60.0,-5.126684305644261,-1.0803584848925567,-1.5653771932059755,0.06346311835564222,-1.347345982460908,-0.32714272490980534,-3.016224686784014,-9.00081161303386,-11.812966696179117,-4.738806163223813,-3.458357178737785,-6.786318319274798,-6.412870603469344,-10.097805438700107,33025,5.0
15.1171875,60.0,-6.494499155611777,-5.529145822987871,-7.597852797049754,-3.761761784519166,-7.832363496708908,-4.652980943892828,-4.89782320312716,-8.287981702132853,-10.135400424616023,-4.415825829616239,-6.356883744565678,-8.843523408527048,-8.225100312302743,-9.368397564589856,33025,5.0
15.125,60.0,-5.447642013299898,-8.69084110457888,-7.556422731404695,-7.40544241141032,-4.691286323541888,-4.491459630613889,-3.4695451193341427,-2.4277670875833337,-0.8561390255995178,1.0010077846303744,-4.625680785519279,-2.1122550130398707,-4.637887929348423,-5.1914487570601295,33025,5.0
15.1328125,60.0,-4.215094779659481,-9.446294920304538,-4.250132949650421,-8.04271355495706,-0.7987671613500567,-1.5471246213160867,-2.22868698307191,0.2861914683601583,4.650095634029611,4.195692684513148,-0.9334863528773951,2.6171499244867107,-0.07437333252649125,-2.960932886042741,33025,5.0
15.140625,60.0,-1.618525130530557,-3.992806058428471,-1.8921898900665184,-3.571085997548451,-0.8149569595479704,0.5491046398257424,-1.6857555571979788,-2.2226000719100654,1.3126875495169088,1.0807546951736526,0.3130973279332636,-2.9702739227032993,1.7981637378219233,-1.5571666253915453,33025,5.0
15.1484375,60.0,3.8746756757893053,6.368022075632794,1.3099619854625075,2.5382479084595957,-0.5827616576716252,0.5811337702293713,0.8154749749173646,-2.033196728636838,-2.591354602118301,-2.6522071929006046,-0.5200852538112173,-12.024095531051131,1.564549758444798,1.3953418166519356,33025,5.0
15.15625,60.0,8.284921407238414,11.521796764174823,7.3970507601521405,4.990329982373964,1.6801575770813457,-0.15322400417821314,4.502884965433893,4.483114890391917,1.6671272596822178,-0.6117226761998751,1.0612981515779865,-7.730115287569959,2.4779041210030073,4.455242852242648,33025,5.0
15.1640625,60.0,6.385612479165559,6.388727166209321,10.96352068224516,3.1113464454128774,2.3141799141515236,-0.12023023201399496,5.347851950907781,9.29158772326646,9.568317009411317,4.361784701143037,5.1012191529190005,9.91723584038344,5.444622564199918,6.082386696857,33025,5.0
15.171875,60.0,0.6057476160772381,-1.0929867066862329,5.662701482128881,0.5388946947807938,0.48621082150761197,1.228432740604461,3.27110918581441,5.764445723152278,9.393055343877862,4.934419693180871,5.907860031937744,18.823386898423593,6.497785494844138,7.467532337846933,33025,5.0
15.1796875,60.0,-2.727779308940711,-3.014749867681303,-4.195901404714817,0.04097172590353182,-0.4447070274679419,2.4841685677534997,1.3586063468713405,-1.3664472544043917,-0.9078309302111052,-0.22585087129540682,1.2394109862433709,7.197136228930233,1.9101524908617336,8.034777502124257,33025,5.0
15.1875,60.0,-3.239506589425389,-1.908889645418455,-8.118881739219987,0.21831614670769284,-0.10412642577054498,1.1101367767709718,-0.8857428807048677,-4.491852523587241,-10.051069237644015,-5.44970002529206,-4.199756983002246,-9.109947277812793,-5.284867446642139,3.4014010151397684,33025,5.0
15.1953125,60.0,-3.2243139108993972,-2.0537332237074537,-3.3704861280647407,-0.9132573829646162,-0.6505989350271051,-2.2090943780386425,-4.79042834861022,-2.7268212536294953,-8.135204560927164,-5.322727089723713,-5.131591933813894,-10.3356267364463,-7.665874550147748,-5.8767575322690675,33025,5.0
15.203125,60.0,-0.5954791355189286,-0.7914216005653287,3.514575586519669,-0.55219270683709,-0.5796401053749491,-3.061657324191728,-6.648455390169531,0.5418084431457117,0.8813401828151655,-0.42061053609292287,-1.1717420776858631,2.528135683780391,-2.7469989348484916,-9.216980876977473,33025,5.0
15.2109375,60.0,4.511849179553721,3.8298554309439794,5.889894404700826,3.863835098348673,2.2839771729573073,-0.0210662645827,-3.1039536481455343,3.013243408848325,6.2657297004888335,4.129154582793916,3.4069847923507695,12.435638540488682,3.6118187080068083,-0.7791933770105857,33025,5.0
15.21875,60.0,4.935236925319671,5.498679733988098,2.647637237185961,6.73044044733021,4.5827496887022505,2.8057280854265656,2.368374154400101,4.2628012278944,5.752850117144163,5.254987427508311,4.742476315297509,8.33906897264545,5.165406204453475,7.690880739732435,33025,5.0
15.2265625,60.0,-1.4703974027553102,-0.35539502983951365,-2.4814550325314,2.5229170826352316,2.148239763041275,2.188576767116345,4.466143544238619,4.145749947296125,5.2622263386064105,4.398855107799676,3.9313576142015307,-2.8700551796409854,2.869290857088913,3.5899585233008224,33025,5.0
15.234375,60.0,-5.255868813441268,-6.278046497854021,-4.915557096637812,-2.984567199824383,-2.5290307717310014,-0.18955605532396191,2.8332023785702063,1.3812085760058608,5.439225904357258,3.035226562895275,3.741640912607835,-8.188349135222566,1.1118211267507974,-6.00597028882143,33025,5.0
15.2421875,60.0,-0.39173984707491627,-3.7869614716573636,-2.9721056569061375,-3.0216044651985783,-4.171142167104051,-1.1827699448343338,0.9279027646418712,-3.9493053746664657,0.8561632918798381,0.6562545128095536,3.1538703549931313,-4.481010127248695,0.9024693586050603,-6.545014203233237,33025,5.0
15.25,61.0,5.011347714983685,2.8649901709568013,0.9414150521318874,-1.8677304704820727,-2.6401050134592055,-0.18871207668135526,1.0866863305313927,-6.780324186585219,-7.023617528092146,-2.5204337272609223,-0.4271838968313517,2.4875200586039483,0.5705415991637608,0.7339300469933505,33025,5.0
15.2578125,61.0,2.1030940628543107,4.646365522190891,1.9468737001538585,-3.4636071953673166,-1.3058118901534357,0.6056419275783895,1.29502282128027,-3.497729613092062,-10.516800309360136,-5.66389863099927,-6.360563104517098,4.539752339554255,-1.4768995742976756,2.5661748011748955,33025,5.0
15.265625,61.0,-5.370298609567044,0.193946294015376,-1.7569132757255659,-3.0431532130188828,-0.9497902917135974,-0.650684915167389,-1.8948725909871484,-0.9556844516642258,-9.660577900227011,-8.932984991744632,-11.624965110452436,-4.381566067201575,-6.4843189192140045,-5.501833844236515,33025,5.0
15.2734375,61.0,-8.660843913116466,-6.703052156929246,-5.177305520712366,-0.7882990786392838,-0.2562329227799722,-2.3046009355821866,-6.032132246743245,-6.585698341612613,-10.26517483457063,-11.018183432109481,-13.667011874226063,-18.267969070472006,-12.543428428165257,-12.997691165567076,33025,5.0
15.28125,61.0,-5.194965699947119,-10.536741961742635,-3.3269504229397455,-3.9115610530522957,0.9554009626091613,-1.3882399182925127,-4.424930646307658,-12.030288750503274,-9.404813891530992,-7.858358822999591,-10.11119764635228,-19.990656643151382,-12.64928236226288,-8.378723710190968,33025,5.0
15.2890625,61.0,1.646116800041625,-4.937063177071991,1.2656605244149546,-8.621978626925866,1.906694090925427,1.381166714729929,2.4931460276717985,-4.1308918162723955,0.20808005857570322,1.478535690855736,-0.3736418760227167,-3.91012384148371,-2.5191374280506693,5.8387309311108595,33025,5.0
15.296875,61.0,6.456077488493236,7.485452496421459,3.928414952142475,-2.487771755966307,1.779612091519752,2.4670378148208414,6.233361333791862,10.721637739713444,12.807841010098784,10.213494997394136,9.543384808658018,13.693303975187277,10.288030083863646,14.799444435239636,33025,5.0
15.3046875,61.0,6.154388044403689,13.993141072912806,5.275112782779473,12.31605586850057,1.0671146751786722,0.890228823010716,2.8977008434893605,14.45777399522926,15.173759070321566,11.524770639857508,11.92383839922212,17.242471752748685,13.89500903828754,10.042185294609936,33025,5.0
15.3125,61.0,3.7191932684789037,9.690194141895063,7.506323753684796,18.974781747574752,1.8699658936474037,-0.9490743432697286,-2.096099397526089,6.472096248818843,8.472161146819104,8.061855899102184,8.981280730843181,11.721980194122864,8.68415550241643,1.481474476133414,33025,5.0
15.3203125,61.0,3.1221767698757645,2.4499055877282387,8.114597204343568,9.941768293495528,3.084489705895436,-1.450620058540025,-3.6053890965846023,1.8965503600811644,5.080431245113189,5.974630546880832,7.822208108056529,9.31455776229565,4.834331176155175,2.228789182306599,33025,5.0
15.328125,61.0,2.3550372154669077,-2.6471970248019687,2.1432414882874014,-4.458296475585939,0.009386213452359016,-1.4491561129260475,-3.1621597511033883,4.387827803796824,6.424422958122591,4.401340526536089,6.382973622355962,9.39487420934428,4.048314966306222,7.5457168537709975,33025,5.0
15.3359375,61.0,-1.7296718169351948,-6.542027697777016,-9.217397879128882,-10.90874589375781,-6.3761541243472095,-1.3799824122102962,-2.865553042810376,3.494927806689077,3.4038280957879152,-0.3193879677986473,-0.7300270342483657,3.9992165042792465,-0.7729262027211377,2.988610638820262,33025,5.0
15.34375,61.0,-6.54114121755029,-7.45178381250804,-15.923584664715136,-7.3711138122946664,-8.173950465436363,0.0002514343830881671,0.02720377895417414,-3.535353234023944,-4.99763345975461,-6.105646430979434,-8.820947829232068,-6.746656155213884,-8.313466185867782,-10.735502125770694,33025,6.0
15.3515625,61.0,-7.321149702585885,-4.186728308363982,-10.527297528373268,-1.974895253956916,-2.3671935040026995,2.716255687464212,6.669625156567847,-6.77911190556479,-9.882383329420989,-8.019491435914233,-9.002245174721082,-14.277206625843974,-8.39172048661814,-16.57744079737597,33025,6.0
15.359375,61.0,-3.016580605743897,-1.3343310745864585,0.7278265723806072,-1.7282558386019247,4.66550249695338,4.108498251110618,10.781742673920249,-1.0495862792230497,-6.633818375303619,-4.985867676926205,-0.9824620274978741,-11.701690574640992,0.5310718417914302,-5.488059369701489,33025,6.0
15.3671875,61.0,2.8020442272164274,-1.7772373205725955,5.9260671502365625,-5.171920720119957,6.674193403823423,2.257789671836804,6.264380131811933,4.526021849838443,-0.9223117211118392,-0.561630662671945,7.243915770916686,-1.8754512027949488,7.296507091427401,9.810464070584246,33025,6.0
15.375,61.0,4.729711267658075,-2.3580178022437224,2.77833820058963,-6.374962277596197,5.063650231040668,-0.8453057350568827,-3.435584633030132,-0.40083581882782937,-0.29726818767527163,0.913087455380662,8.279063106638176,4.431281777462445,3.7940020581337137,11.460871553747197,33025,6.0
15.3828125,61.0,1.2801882690355484,-0.9325446861070645,-1.195180423873424,-2.800068077314748,3.8831444926199765,-1.554067538653058,-8.486891456087776,-10.164179887896907,-3.5140838993098527,-0.5037337042734293,2.8324915422576993,1.9637939148178418,-3.7175367875664023,0.2935977855461829,33025,6.0
15.390625,61.0,-2.7023342379691684,0.5398413298000406,-0.09184291651196475,2.6196573518776916,2.0993498139183373,0.18144165992156047,-4.202951442187242,-9.30017434878809,-2.299000640143504,-0.23782766645305742,-1.5174137188214587,-1.9948160759844455,-3.8958231850127447,-7.597409262575454,33025,6.0
15.3984375,61.0,-2.4373331144082613,1.223499834237387,4.210099616588195,5.600531712885839,-3.1561577044618048,-0.10069928605888379,1.8867925548085083,2.9341274938861517,4.43051136265062,2.876688938489238,-1.6561404839416127,-0.06245847357256196,2.4325190083577297,-4.9585578962747405,33025,6.0
15.40625,61.0,0.6140225346627517,3.102183475340425,6.451486183030553,6.046181040473158,-8.774873578364307,-4.648992632377087,-1.2338051616432324,9.015842218094647,6.162441721989552,3.145252942685886,-3.5786524758563445,3.8967874784707703,3.4501726063290903,0.025535671505977575,33025,6.0
15.4140625,61.0,2.573568209849242,6.983009641967655,5.501033479073527,7.753560577402709,-8.534650963037635,-8.099716109103838,-10.729669193008519,0.36518207470278696,-1.8715281763237925,-2.049658951195468,-9.902628935102086,2.925570175617594,-4.116823585425053,0.46071070087670307,33025,6.0
15.421875,61.0,2.9775164393900013,9.999055393296047,3.9608204054909066,10.195980331525305,-2.4672538213792876,-4.096085853796609,-11.553706353269689,-8.839233989023512,-8.078321853959906,-5.730343213641078,-12.758004117293396,-2.1430134198723323,-9.612840710801407,-0.8304036359771061,33025,6.0
15.4296875,61.0,2.105299378119213,7.1961094028295065,1.5944490095036201,6.35682318923773,2.7073632222676167,4.7745806959752315,1.3085970142110597,-5.054128142280433,-3.5496552882670755,-2.934361454867428,-7.7872720406084,-7.052659520280216,-6.79476382869737,-1.087704897554417,33025,6.0
15.4375,61.0,-1.6237861169602468,-2.5566991846922775,-3.6399358645928004,-4.8606430610563365,2.692542258680092,10.107705816619088,14.78045157741785,3.7212185364077044,2.2064320187943167,0.15177164240654406,-2.386896966592303,-10.560996371481025,-2.367270029150177,-2.7110420941477145,33025,6.0
15.4453125,61.0,-5.784682451668019,-11.422098073739434,-8.3462522835773,-12.062867342401617,0.7763742324306264,8.155439643873194,15.47737964686786,3.56268158855994,-0.22387927568709642,-1.289039319632721,-0.26851363545421236,-9.38518180515075,-0.4512398938346678,-4.502772469048153,33025,6.0
15.453125,61.0,-2.861715820396313,-9.483676879989162,-5.257131264027706,-5.866974250847676,2.422503139683286,1.6935578568618865,4.9245584040236565,-1.8082521663221485,-2.42725896284432,-0.7355722479056368,6.390974743909851,2.3478789496638655,4.938239170308648,1.4385902661072691,33025,6.0
15.4609375,61.0,7.6504776898558475,1.9475262578335588,6.208860264365029,7.128213375154317,7.306490524609131,-4.831004477833602,-6.042394129998698,1.042458715513817,4.8129692865582,6.372009677316285,18.698323219376164,19.812669723659553,14.455447208103507,15.689895629211179,33025,6.0
15.46875,61.0,13.544707507632523,10.847557807141072,14.8418728277002,12.060521732836875,8.8046985701543,-7.709884320809564,-9.684653756325261,11.428894168435477,13.32908846549499,12.054095627998848,22.01055879152051,25.293032249688324,16.411765458876374,22.386678064546132,33025,6.0
15.4765625,61.0,5.264893112600149,8.014941229824785,7.811411420805413,2.878263872319053,2.391664654701202,-5.210314739711592,-5.155495881164143,15.095982603494491,11.102213298272545,7.784016952130912,7.0948155988838835,9.40856745882185,4.16115006302293,7.851758698934944,33025,6.0
15.484375,61.0,-9.40355680103822,-4.10050223062774,-11.631690071578191,-11.768069172498059,-6.912102886377085,0.22863935388008372,2.7614070325374342,5.781336034313085,0.4394037391168837,-3.1860095613157426,-13.224898428662584,-13.947077273343709,-11.891910476771997,-16.24526257537819,33025,6.0
15.4921875,61.0,-15.242141699248762,-13.934285201392683,-23.44189677455087,-17.81671956146971,-10.126521409880368,3.859534143285302,6.477087195139319,-7.496876488474896,-8.09945999650921,-10.98430184431588,-19.452274638381738,-22.2793091308136,-17.16946147815169,-24.948612978546905,33025,6.0
15.5,62.0,-8.905471359798938,-12.459953744448057,-15.330528977151957,-10.865498633617705,-5.754952533948625,4.2524825742445955,3.3072324029273688,-14.170879386822833,-10.398774834425708,-10.571836269904765,-9.496988671910657,-10.075616472769198,-9.630800663885765,-12.692612905328048,33025,6.0
15.5078125,62.0,0.15659251167951993,-3.24350794843663,0.8632179760389533,-0.30029489340925863,-0.07380110208832491,3.260905406224097,-1.3628970497336894,-13.168598614081574,-9.91716939260428,-5.315128792232684,1.5426438412116426,5.903349542698479,0.5753596264557075,2.4174589341048858,33025,6.0
15.515625,62.0,3.805832591421094,3.8678143215023226,8.004915049258543,4.21429972113873,1.3717045576432128,1.0227543021346577,-3.13546170377181,-9.177022864910924,-8.793737363214817,-0.7362506457490525,2.6940773194496046,7.572156462116425,3.8827418542650918,5.313404811503503,33025,6.0
15.5234375,62.0,2.49737914592383,5.646187211080445,6.724737341460809,4.422203859095191,-0.30317480588924184,-2.677318677726589,-3.5965286444110802,-4.09183536744807,-4.206847464668442,2.5177568686145975,-0.713339021273427,-2.4778857387269113,1.484485347862801,0.37592496428217714,33025,6.0
15.53125,62.0,1.0756426737576277,5.008232634843395,6.5316353583642695,6.198911965205397,1.0692976052389014,-4.5514393601942515,-3.566099610897794,3.62505342904106,4.9064102853508444,6.49854605095085,1.116278352002837,-6.839459538109011,1.7473654900866649,-0.2619788264160974,33025,6.0
15.5390625,62.0,2.956473435862833,4.591652475351452,7.890199982393753,8.812699620400807,6.403357357629929,-2.5672707770293783,-1.2935570831364203,11.821426526454445,12.437491535304446,9.362577734551607,7.091119511836098,1.351775467022037,6.978875113734958,5.652025820147841,33025,6.0
15.546875,62.0,6.952628396851409,5.476196397421404,6.52077721667527,8.235129496804277,6.916304143047867,-0.12334237903749568,2.12945149104398,12.903324337722992,11.66001095214861,6.831317282853149,9.137110219010054,10.926668224197215,9.927986760952862,10.252355135909454,33025,6.0
15.5546875,62.0,7.7362231067353235,5.556387983703118,2.9409749984049256,4.081612386447233,-1.6778004226140695,-0.044778392794327715,3.6934364700411635,4.083701366628873,4.2999360032583525,-0.10273447618479281,4.8334905014950635,10.666761607379144,5.662870183523324,8.195624687712879,33025,6.0
15.5625,62.0,1.8646393486598072,1.3902432928555442,-0.9791237006183877,-1.14796415017004,-9.433222601493839,-0.44754243929163806,2.716417753383837,-5.192762796452598,-1.6521302250840932,-4.6131956166474595,-1.4247877111262284,2.6035747173623776,-1.1463335720844157,2.3158260265877573,33025,6.0
15.5703125,62.0,-6.299452149882924,-4.266677999074602,-4.421853987691307,-4.732226360605793,-6.736548839034469,0.4796951566876544,-0.08529646948186098,-4.088082819711374,-1.687326535865168,-2.984318370765976,-4.977355730424449,-4.549661392186437,-4.225392165663479,-2.315036928082833,33025,6.0
15.578125,62.0,-8.313007030543673,-4.8626939561652165,-4.659277282367555,-4.841381062899217,1.79307635254969,1.3818651795239418,-3.568445468705363,3.9663836033887208,0.8044104159914838,0.6372955836587835,-4.198801119854849,-6.422158053890826,-3.466587237224388,-3.7579014706812615,33025,6.0
15.5859375,62.0,-2.3520979436847966,-0.7264339371250941,-1.0202699177397534,-2.427877121834115,6.159695986995914,0.9553353829961821,-4.755087013171632,6.149196718071181,0.3381114296219607,0.9948170674165482,-0.9902280977513129,-4.545846798214896,-2.197391254062282,-2.348938376115015,33025,6.0
15.59375,62.0,3.5406400662520383,1.162613254514369,0.6519210021837978,-1.113630835763061,4.314696849491526,0.5237932984154554,-1.3061550101101318,-0.8858283988085276,-3.146024226207814,-1.7903372194438703,0.6143299378165921,-2.0742741130856786,-2.5608816742582405,0.13618414230184328,33025,7.0
15.6015625,62.0,1.4931922235269184,-2.9868277540662262,-4.2063063131211464,-2.929295478975348,0.9576389473363918,2.165967540345278,4.25020491227842,-7.7646769621810705,-5.609041967136292,-4.773925277619412,-1.6197327990204116,-1.280757652429486,-4.450472220075213,-0.7728827071767199,33025,7.0
15.609375,62.0,-5.4333587042934255,-8.542605968357265,-9.955922531641505,-5.074696528373494,-0.22512500766576693,4.990164978866233,6.728957205738482,-7.340163410536334,-5.153182725029467,-6.025082801706532,-5.685077172444608,-2.911394035095995,-5.838207193966014,-7.899301612220427,33025,7.0
15.6171875,62.0,-6.694458701657894,-7.343699444560059,-7.118987077295046,-3.2301303398693335,0.4972729307188928,4.622152103983538,4.337504765748292,-3.078783550365003,-3.279996937381398,-4.915350146279806,-7.232303649994847,-5.078347456430421,-4.874511953892863,-14.152648165449946,33025,7.0
15.625,62.0,1.1926528342613523,1.2969770892999435,3.6430753608287603,2.086497187360152,0.5630144461162843,-0.9372543205999762,-0.11491977196776304,-1.135589955006921,-2.0224455027832704,-2.170894645596121,-3.5470709605060478,-3.507929146695062,-1.7518115045233742,-8.12640940804782,33025,7.0
15.6328125,62.0,8.664628612043103,8.026253750845385,11.159624501808281,5.6321309978913945,-1.1145521563181546,-6.128163161135149,-2.704182046875431,-0.5625092790552912,-1.071420780158931,1.5852613576590926,4.023139938922313,3.820108492740033,2.735165101466322,7.277187527213215,33025,7.0
15.640625,62.0,5.9803814193483475,6.256894176964792,8.734136105682893,4.51590100270721,-2.0309041042474547,-4.275375230284126,-1.505994498023071,3.8401740757194176,2.7819220513696195,6.930084724117634,10.57527790325841,11.32115830866978,7.5895242521893636,14.691660237742,33025,7.0
15.6484375,62.0,-2.366818535539963,1.1691333190429987,1.828697244909506,1.534040036265111,-0.4592604909951774,1.1547066941665776,1.290440925614874,10.332020281682006,9.5942293768329,11.23420328967461,10.500186964378898,10.085730635205266,9.599182100756806,6.996131512781346,33025,7.0
15.65625,62.0,-4.1612172992796985,0.11823950165890551,-1.62251774781258,0.3155103541505184,0.23301647003553683,0.4091398707017504,0.22893878966038983,9.664550367921038,11.167622766260251,8.422447911022715,3.1718340481631913,0.5767329022762198,5.919367103485328,-2.803645224966303,33025,7.0
15.6640625,62.0,1.8736013291131854,1.614991342644018,-0.5298631868890169,0.6615897075265735,-2.4789528284821927,-5.910591466382158,-5.685287513806372,-1.1293818863501741,1.1489145437334969,-0.9182608348155838,-3.959701986857837,-5.989394990677724,-0.6123263139106001,-2.7654385270222406,33025,7.0
15.671875,62.0,4.5629526225382335,0.5211066709297683,1.0830547905052015,0.38172161467581134,-3.8758043110481424,-5.9525210841903515,-8.348752791734228,-12.436947399493604,-12.105514035120635,-7.63123456109102,-4.373929905886868,-3.5574207626984418,-4.167956189510264,2.185370372813381,33025,7.0
15.6796875,62.0,-1.472218520384942,-2.3170290502847593,-0.9010886839624277,-1.0306480461470926,-0.22115088276773065,3.0363346459694895,-1.9537577385743674,-13.50120196917338,-13.999133003884722,-6.765814934304046,-2.094953374502026,1.0010774744490618,-3.522333919047796,2.3868714887142914,33025,7.0
15.6875,62.0,-6.833648574969544,-2.209570486844612,-5.386910589465529,-2.190085021003142,2.291169383344169,8.172435674507284,5.957254759935935,-3.958961036744796,-2.9952391074339175,-2.6863833071770813,-3.1503914809072597,1.602622756644493,-1.6991273509428027,-0.9515981508633473,33025,7.0
15.6953125,62.0,-2.0009149901850662,1.6849210958255583,-4.948062706442229,-1.6716716198204011,-1.059128568601082,2.0267237410147203,5.715901153862205,7.704497125115481,8.329473979024655,-0.19301434062799672,-4.647348471130414,1.2791300735155176,-0.3915886904954533,-0.38011491808994435,33025,7.0
15.703125,62.0,6.94496616273922,4.90130169262261,2.6886213091825226,0.12301296033594156,-1.8800666041989587,-5.378411211273118,0.49114273483438353,13.04250324140709,10.354566951356304,0.7934737679777726,-2.3491317634524904,0.594162725730186,0.11710244362834032,3.6999939309615115,33025,7.0
15.7109375,62.0,6.770313198330271,2.273858140678442,7.031157339304727,0.5785842673012098,5.398016998265575,-3.445772128987656,-1.1109752689139611,10.160312629296413,6.040791925055643,1.9176981127550334,1.1052860715785755,-4.864490836187116,-0.7860504477600898,3.0326484044428526,33025,7.0
15.71875,62.0,-2.651725879050886,-5.248822305659388,0.20232497464328958,-1.5496738345501768,9.296046951137242,4.103137179916743,1.0786652075218797,2.657580741438366,1.8607941186302952,2.545607750514449,2.532679245705509,-10.440904387381352,-2.0147832727880086,-4.035900883140968,33025,7.0
15.7265625,62.0,-8.281260584384754,-8.607887421600054,-8.538474621336093,-2.960680660683323,1.6520821029373423,7.612127655340913,1.8043421178633707,-5.635420059364378,-2.3285420567914485,0.3139663321436643,2.5018150254319806,-6.268673481733487,-1.4472614258173166,-8.200310398609503,33025,7.0
15.734375,62.0,-3.3775502574090126,-1.9707947459126984,-6.505494536968627,-0.4174046044806232,-6.295863341702557,4.463042389673987,-0.13642318458387592,-11.639509829344888,-7.7559522991610095,-3.7747406646462878,1.8629678771118563,4.004659526939818,0.18592334553721912,-3.6399501544673285,33025,7.0
15.7421875,62.0,4.018500736473342,5.701161376753262,2.7378856490264525,3.2129886263262506,-5.174741294533263,-1.1328351011951696,-1.9171479540066088,-11.11822788151062,-8.755137720236633,-3.9412909384743244,1.843270442541865,8.21131888437661,0.7507656171686534,3.077139563553061,33025,7.0
15.75,63.0,3.791845764293825,2.268556019892017,6.1282662552819716,2.988163350646147,-2.3104154865686297,-4.889364963641356,-1.6294968987164538,-2.420052084901471,-0.8786582198605117,2.1451057003875036,3.817232044876434,4.791087362958962,0.7894429363557265,3.9015752174777276,33025,7.0
15.7578125,63.0,-2.8348080700844633,-7.338565215624939,1.0422313766573978,-0.1872802270935381,-3.164319788103896,-4.936277479753599,0.1015890658455163,8.150065321123947,8.670665176472212,8.066679357443562,4.790843206609011,1.1126069450139653,2.009834210305627,0.21634879520425443,33025,7.0
15.765625,63.0,-6.156931989929092,-7.8169900656932185,-3.380351327741465,-1.379911019465112,-1.0280093590168065,-1.5337312435462707,1.4999464419494188,11.00715007938949,9.635158782999952,6.950003276112625,0.8083463940979527,0.5205302752045071,3.765290627164134,-1.7790165450456925,33025,7.0
15.7734375,63.0,-1.0403503584223444,2.815446552630405,-0.6171792927125921,0.5028060643892474,6.4357344328203965,2.030286580140995,1.3174392665021202,3.744196067246918,2.1644676605477855,0.3840407525112397,-4.203494886870189,1.7490170540805963,3.7580147028525204,0.35938415651733635,33025,7.0
15.78125,63.0,6.603699443133863,11.571970745170717,5.984879860701838,1.6995789902464793,9.126456757419106,1.4812315952434005,-0.28650126311237045,-6.691700150219802,-6.938590902844965,-5.419071919139995,-3.5876703122184352,3.5871125305628766,0.984128930573533,4.031874101010715,33025,7.0
15.7890625,63.0,7.369440331727361,9.57543420312848,7.824634094409802,-0.37764383519035505,0.5263718206165322,-2.5603294054238717,-2.027481783407879,-10.682109842856377,-12.706134484026649,-7.518258279125618,-1.0106025911766494,3.6360191132588398,-3.0737105677481082,4.442320387124184,33025,7.0
15.796875,63.0,0.1024318129442463,0.9635905361138413,1.0857722757425279,-3.255379103842216,-9.843507754206584,-4.378641600130436,-2.7272340004990383,-4.31574500028124,-10.869363201483665,-6.27773460207888,-4.8661082828262465,-1.013795528935816,-5.854296910682351,-0.9638601624404259,33025,7.0
15.8046875,63.0,-7.006217991741281,-4.999756859492862,-7.170485422511732,-2.4071711598254666,-8.63886492928252,-1.2048805864257304,-2.201598277276375,5.4546915030219765,-0.5252013080104945,-2.3521518176648044,-11.003185606412728,-7.815216079318347,-5.968134812409431,-8.460966173420587,33025,7.0
15.8125,63.0,-6.533024926394276,-4.088392970894304,-7.6792325606674865,2.0231481781426055,2.113987885541846,2.8630830309262763,-0.9850151490239369,7.445004537462012,9.455783101032566,2.1432936069980997,-7.621223507924654,-9.827185666062405,-3.9781827712931914,-11.148800720967628,33025,7.0
15.8203125,63.0,-0.15940601737069926,0.009137985621350708,-1.45612648271522,4.287272218505592,8.249311484737532,3.374149212170437,-0.07039612956275221,1.0721113940211353,9.623451852943006,3.651275986882652,3.793794065121176,-4.8509222473172,-1.3250333732830484,-6.607636754402648,33025,7.0
15.828125,63.0,4.654946314738623,1.5356753905497555,4.098530601823754,1.3013267279492595,4.279761602452368,1.5187037921923263,-0.32457481084577466,-3.2258210567159864,3.5990995859020387,1.9241164672720572,10.623219171859134,2.802763608233576,1.5507642565696926,2.00566039257761,33025,7.0
15.8359375,63.0,4.938491614701263,0.06183799306161575,5.602675046788434,-2.2407095043645597,-0.6142210678385425,1.082128054691438,-0.11381017955372386,0.13820559283740863,1.3785458183151178,1.266614123840128,9.685396731192185,7.9594143280765906,5.399798923944573,10.265212900183599,33025,7.0
15.84375,63.0,4.516509825293014,-0.6397990862656684,3.3918867760603746,-0.7881912609741164,0.8152922788316062,2.7638270837365724,3.971247178545113,5.65268906995253,4.168652276304698,4.130393213381538,7.6183002305713785,6.143077021361208,9.017749090846152,14.164554300006458,33025,8.0
15.8515625,63.0,5.250444717364061,0.314569205546988,-1.2829744908671188,3.3866771393810495,3.0321124010033316,3.597715933707775,10.156665945844964,6.6528422664142255,4.607443804086344,6.046094495071756,5.451685337374158,-3.8757832892102186,8.201327605347714,11.049949741864438,33025,8.0
15.859375,63.0,3.0202828289950077,-0.3085832616659161,-5.283200831962617,2.744589556048595,-0.6071151334306819,1.1677100653476202,10.458516626549184,2.8100853772687913,-1.439240238929358,1.2463923318902204,-0.7240662333117882,-14.155775458712782,1.434565146893945,2.3260610637178587,33025,8.0
15.8671875,63.0,-3.9988094223848094,-3.3593378786104466,-5.6495176930746425,-3.8773093012352717,-5.790015631375184,-2.6954739261906013,2.3483754761302293,-1.979532778020797,-8.257218714071428,-6.686036626281165,-8.191296184081523,-12.986021447755732,-5.827156540524541,-6.444414434677526,33025,8.0
15.875,63.0,-9.70055327177674,-4.756231064239117,-2.2602273385904965,-7.558159393538304,-5.728020828793177,-4.190423832758654,-5.889795900300555,-4.018012949384925,-6.84995493673766,-6.8774636738599355,-9.359551363790217,0.6838253428220469,-6.702284899899681,-9.441188382708049,33025,8.0
15.8828125,63.0,-7.9602971820435755,-2.432600668698626,2.3360473246910374,-2.6477226111693852,-1.9713536144365946,-2.8755595325310424,-7.771746048249398,-3.095244067715271,1.8361691298477893,2.2506685438988683,-3.4388215211280766,15.419595652646578,-1.6533210003020287,-5.185425461477166,33025,8.0
15.890625,63.0,-1.6180974770560823,0.1214262093808145,3.8308043735865596,3.843780757952331,0.953345644849847,-1.804479543479502,-7.385148405565985,-2.655585345511156,5.999924662706576,7.94979364443023,2.0643616124202993,20.86626519546921,2.031063192530297,1.7286355404047526,33025,8.0
15.8984375,63.0,1.7202366552695736,0.895104862167571,0.913530078686918,4.147668397218965,1.6271405357042141,-2.9030695929331642,-9.147963115572793,-4.895894688597821,-0.5122151421466867,1.743714352746366,2.6249879965186977,17.272801323243584,0.2154028288926355,4.576104605295825,33025,8.0
15.90625,63.0,-0.0689802821009664,1.917731129857117,-1.6314202258492543,0.7049726450404279,0.05449548161688256,-4.212003999717027,-9.32991553055092,-7.51700776960827,-8.938292408207431,-7.715991758477742,1.620487577689616,9.429029205854903,-3.1173445354343414,0.9929477340894834,33025,8.0
15.9140625,63.0,-2.5707887175575195,2.7172461020400362,-0.854737116162454,-1.3580562449206042,-1.2669591735008936,-2.108258304477161,-4.369633765023011,-7.332057222257276,-9.276767081543696,-8.868756035293487,1.0289848440291536,-2.1525225634701712,-3.4125717326982254,-5.70545892487786,33025,8.0
15.921875,63.0,-2.122089264907032,1.0748218544189427,-0.7712747881503788,-1.8421157016038165,1.0056867162693663,3.29480516486538,2.533685978629123,-3.6859761370077706,-4.058455343135904,-3.762531963952739,-2.449891059409069,-16.362831613877688,-2.304431775347581,-10.738805705058596,33025,8.0
15.9296875,63.0,0.8606982807506256,-0.4221085262270634,-2.887785854189957,-1.9197748341161684,3.9795696772086586,7.022811020193785,7.85728904017796,2.260867221069205,-0.77645822370377,-1.1647114517938917,-7.8358805875722055,-24.513079030611593,-2.8309714732896083,-11.015356221821179,33025,8.0
15.9375,63.0,4.589635907700625,1.718788321237227,-1.3350718698808635,-0.9744691673090244,2.4342339734226357,5.87027980820902,11.410168268805222,8.234489569088268,0.8375523524939723,-1.4436731539231715,-7.862299895833431,-19.352986025603514,-3.2158283788127164,-5.327542010572131,33025,8.0
15.9453125,63.0,7.6890154313517485,4.6322574838171136,5.803036074088183,1.3558465476291985,-1.3446716116265094,2.5591511590850047,12.07119535802471,12.037794218683217,5.573541583426348,1.8586068503334872,-0.3202094353970466,-5.58670893882767,0.35965012707364963,5.145332506980097,33025,8.0
15.953125,63.0,8.760302280643899,3.5934984162945938,10.303460681577846,3.4626129254350673,-1.6469939691575348,0.6704255295432375,8.169339240955267,13.244295844148496,12.602725901429594,9.420830654904947,8.437368802119707,6.52473114737505,7.503731561511145,15.335716768198864,33025,8.0
15.9609375,63.0,6.363607032908433,-0.21599067137115924,5.734369106893709,3.3787268660954197,1.3919848686290948,-0.13387383539397035,1.537931063800201,11.545750475233973,16.197550533999816,14.241057241585864,12.935001525477404,12.134516287975245,12.924752194304645,17.9914252474007,33025,8.0
15.96875,63.0,0.5372826702064515,-2.2158022291763473,-2.34994261120211,1.6993939971872578,3.6684768690954,-1.3973314821119942,-3.9262047586872626,5.8282339548558895,13.726805582131874,11.741475037353581,12.82275137909727,12.584917808868354,11.719768109502112,10.922162618748018,33025,8.0
15.9765625,63.0,-5.497810339886044,-1.5227424946098438,-5.20435652392915,0.7003677053467214,2.91704942971009,-2.6108443515227293,-6.299822762248979,-2.71777298364195,6.806540797322754,4.379560687183741,8.001314397014468,10.021849784647586,4.2169073145326905,0.9381629177215132,33025,8.0
15.984375,63.0,-7.673321629949555,-1.0918864658226255,-3.44062102367333,0.3815448184484893,-0.5414801933284963,-3.0203630373170824,-6.711634921737044,-11.128919146196154,-3.6568895045431873,-4.000933065896746,-1.599384417044945,4.2672071459612795,-4.894855658351219,-4.838045667668965,33025,8.0
15.9921875,63.0,-6.153196549646395,-2.3534508090012736,-3.1105186700707748,-1.0305016676169458,-3.9299121704178503,-2.9315872099762856,-6.945660650567845,-18.46023522755283,-17.10275152251721,-11.967851409267595,-11.636675783208872,-3.965645732458057,-11.427760840871755,-8.06388171357547,33025,8.0
16.0,64.0,-4.411140578172265,-3.3341168021452887,-5.211750191520295,-3.0094985172853086,-3.513344719711199,-2.055177526210329,-6.269778984451577,-22.6953351081099,-27.725662932403665,-17.532285532093255,-15.782590159323064,-9.239460489490469,-13.994735588888886,-12.105380592143263,33025,8.0
16.0078125,64.0,-3.072123447620271,-2.204623419805955,-5.894109802259038,-3.452866995722772,-0.6289787744282478,-0.5023897974303253,-3.061209523047083,-16.885436777859937,-25.363934665508197,-16.07135734324345,-11.909203078811842,-6.877197456327039,-11.440122101490076,-12.383402042370719,33025,8.0
16.015625,64.0,-0.4337393419799582,-0.2527766296097269,-2.7022131584031825,-2.5430658726837976,-1.0641503961779932,0.06377836497121336,1.3492520595995643,1.8560737936377478,-6.8538969084499115,-5.223449455892549,-3.03664320247411,-0.34728348437883483,-2.6855665475404464,-4.244586943741595,33025,8.0
16.0234375,64.0,1.9837845075701068,0.10898602180213857,2.525099217324467,-1.7996120464789698,-4.308449883957763,-0.09941967964812193,4.660197698796551,21.862767544580777,15.373657091066462,8.487229711437095,5.076513616211159,3.627726168656096,7.845559391523693,6.030168938281761,33025,8.0
16.03125,64.0,1.9042033488453,-0.6507580989200505,5.728265430522825,-0.9097672413134745,-3.0958251471358835,1.3630248124310498,6.506500589810045,26.718418068966898,23.813018229860162,13.941933888630373,7.653211809103624,4.011904674405926,11.58389465617033,9.076163854605667,33025,8.0
16.0390625,64.0,1.6794369994380247,0.28256337893706984,6.085728888181038,0.8724620822192009,3.097196482285838,3.8683171985033624,6.087299189188315,15.285786921276213,16.230931470924034,9.068292609473914,5.85649081336166,3.528954764634804,7.188910306549943,6.010623994227046,33025,8.0
16.046875,64.0,3.922021978492637,3.0486328190151823,6.185160705382913,2.3884811315530214,5.760181573147477,4.396558494684228,2.5125413404144297,1.4430362428168166,5.833441614563796,3.1640843439359116,5.0164746111531855,2.2761450352888346,2.263757991955302,3.8997629048582354,33025,8.0
16.0546875,64.0,5.753384286412981,4.081780155123269,5.108483916775029,2.5023248612969695,1.688615038600929,2.4393270267101315,-0.9764177323475707,-5.205908071481431,1.2111632803327268,2.922888332148915,5.596857815058527,-1.1892435860075068,0.8319203692763324,2.7302915869235704,33025,8.0
16.0625,64.0,3.3161984824427435,1.6213730034946394,-0.523163540436002,1.947107849126553,-1.1389298507763357,0.137627565831977,-0.5767941852405727,-7.321255574591262,-1.1831774514662783,4.0117587329093425,2.555424091166799,-5.494711023604054,-0.7534138661773255,-2.1183136031502983,33025,8.0
16.0703125,64.0,-1.747718878505637,-1.5944276827740538,-7.383608285091839,1.49714837640893,2.899727868308588,-1.0030329392198922,0.4757967371447478,-10.036341361599654,-6.038780920590099,-0.554584457035844,-4.684483583218068,-7.657832703453863,-4.362799111186703,-8.607182166570368,33025,8.0
16.078125,64.0,-4.451406661070436,-2.331514714492215,-8.387708946900531,0.7314584616521955,6.6002731949756,-1.7461330054688489,-3.482347813631236,-13.077170651771226,-12.006231047696232,-9.28322367654367,-9.942639857673697,-7.126034291341199,-6.539758140472557,-9.813115176973099,33025,8.0
16.0859375,64.0,-2.64154999679252,0.16079953608544884,-3.8261007825139473,-0.290617073847784,1.6726644680025942,-3.4755881519732696,-9.2495231918259,-11.76469117821776,-13.524693401818794,-12.969577356820821,-8.776089311573557,-4.794256449089019,-4.709662524677412,-3.8317077735717078,33025,8.0
16.09375,64.0,1.0891440756563213,3.924513138471582,1.4896161898450515,-0.360798846545606,-6.546286291946572,-4.999885751245685,-7.798570962172562,-2.361339437343858,-6.180905332327981,-5.957498538739316,-2.3206281942787683,0.4215099308428023,-0.32582752670869297,4.868095238701898,33025,9.0
16.1015625,64.0,2.413732051719748,4.147740300607111,6.1997840405886535,0.5379672419392421,-7.466002621928112,-3.728034187738473,1.2757387543275769,10.53198275886652,6.243927341829092,5.91518373730915,5.515046707924071,8.232496461802796,3.576371906544921,10.13255106222033,33025,9.0
16.109375,64.0,0.08296106198339714,-1.2347340643410547,8.064039823573651,0.3351087810597022,-1.8788389597523434,-0.23902333653514063,7.935583613192321,15.121993859769105,12.90857597511274,11.087500845319056,9.245088187237755,11.950728746704186,4.6588792363941565,7.932797829796598,33025,9.0
16.1171875,64.0,-2.47605778755063,-5.2762191026907175,2.9282192914613177,-1.533325276656356,1.1422507834925142,2.2561251213681572,5.890314350437379,7.2026445335328475,7.9285663294456015,5.3504840259109585,4.697498590035849,6.021598944792487,2.4503114733123255,0.3762001982825325,33025,9.0
16.125,64.0,-2.3385234669933936,-2.101663384180071,-5.952804746465105,-2.5890899885623497,-0.9331439872694318,2.4725648946623267,0.3006206358450072,-2.916777795022128,-2.5407736153120766,-3.712816924715625,-4.790155262052011,-3.068734751667563,-0.9918533768665583,-5.104456514605289,33025,9.0
16.1328125,64.0,-1.8714511468261605,0.8400042959310099,-10.19947897977653,-2.073890081188111,-1.9921437427584152,1.9737047196402386,-1.2492722625817692,-5.005628065639144,-7.449920272364963,-6.859943980970414,-10.094271172863017,-5.066884479773165,-2.986285409248694,-4.561168319944542,33025,9.0
16.140625,64.0,-3.790471544217553,-3.7752662118770814,-7.293453372442727,-2.0516142472315266,1.6275573642005838,2.2172051258654335,0.9837086900761562,-1.7056876437748514,-3.5128395722297796,-4.1810552309296725,-6.360584193909148,-1.7732475561470125,-3.1204833890786574,-1.6402542572569274,33025,9.0
16.1484375,64.0,-4.5164610416449875,-7.308042573742625,-0.11431686578970357,-1.805878283019311,5.226653965470618,2.2353504411346137,1.2669009668451992,-0.7994424118515298,1.6793163411554701,-1.2956483215059222,2.5587959779362137,-0.8933717601654365,-2.21905329705028,-0.7236840193279193,33025,9.0
16.15625,64.0,0.004824929138038669,-0.9177507032501495,6.317559705946778,0.7047584626706112,3.6129213282856796,0.43341455404329565,-2.0343993303325902,-3.3227773109872487,1.3198893911596201,0.5272893791230757,8.781006947200623,-0.8018772996933592,0.00017047377181711454,-1.7215055405078772,33025,9.0
16.1640625,64.0,5.56373659249472,7.1728389937026975,5.729005736311606,2.319742010961434,-0.4920793734555957,-1.5171316060047815,-3.475123123532967,-4.074304208433304,-0.5569151670295298,3.2521710966773156,7.994220477638933,2.748457561428836,3.341019185686136,-2.1992163121656176,33025,9.0
16.171875,64.0,6.154441894749752,6.734206389958004,-0.0434101218139773,0.14615250473566732,-1.6785831346778366,-0.5805256394112348,0.9304957869518233,1.1719877338474447,3.339298231157912,6.4531013723239,4.413746740729735,4.934574693380142,6.060704774818106,-0.04864389279342163,33025,9.0
16.1796875,64.0,3.925109435903053,1.8819853150265544,-0.2656774242996107,-0.47711022837161465,-0.3392761944022027,1.7335904917397613,5.8895811624852,9.787329580538483,10.653336998597254,8.652693674820057,5.200259716693225,2.6548657982672665,7.193420092698375,4.5155008429918695,33025,9.0
16.1875,64.0,3.60784767254205,0.5849876490226649,6.24992800314169,4.8178258229836075,0.16040199446135261,0.9641083296428974,3.6460808054175686,12.104736218172434,11.063938520390963,8.245576385277047,8.165895996512731,2.5456932266612284,6.164361059654297,8.07182872185831,33025,9.0
16.1953125,64.0,3.9431867699550196,1.9919750127812108,8.050604683377003,9.026787111730926,-0.9928256010038581,-3.0538258097755175,-3.722951797180272,2.455339892523199,0.16532709811107793,2.1691699359692933,3.323880427987092,5.636347010046563,1.3015260139869298,7.676951994675591,33025,9.0
16.203125,64.0,1.623987277061815,1.2796641554238732,1.739099985702083,4.527190247585779,-2.247948001649405,-5.152581592993911,-6.22118349019766,-9.341844065242583,-12.465162681786211,-8.057589933024559,-10.003194589350429,2.879807698692602,-6.355331371201643,3.866984693146094,33025,9.0
16.2109375,64.0,-2.73606465870256,-1.829681175619399,-3.993469070734335,-3.3574338096882883,-0.7091270931646676,-1.4438770968583015,-0.10858269086365624,-8.831589303917994,-13.706970880368473,-13.199516145826834,-18.709182870721037,-6.78536844610899,-11.119012132946537,-2.0005489371986585,33025,9.0
16.21875,64.0,-6.272620832879397,-3.606757357495283,-5.412433578052614,-5.510050676745735,3.8195308970465476,4.708964630782617,6.2031445993931555,0.7961005524131366,-4.614114067184076,-8.835754846275677,-14.459567488703982,-13.824914845544413,-9.383340035310496,-8.957154155032285,33025,9.0
16.2265625,64.0,-7.063370548999572,-2.8238386986199373,-6.23412775831342,-3.915195762666144,5.00084705936645,5.987972353698538,3.791342517971671,3.318775388803431,1.694590802376723,-2.711847838380706,-4.925246102389025,-13.614526466825083,-4.308013617010872,-12.987628386485582,33025,9.0
16.234375,64.0,-4.90216721752212,-2.8008284826444907,-6.623023204218484,-4.852063484976696,-0.7384247993785777,1.2050956095966399,-4.05600147514555,-4.282816292587896,0.05269701973128349,-1.3824108900580825,0.5103452687254446,-8.175661106155218,-0.37382132621405617,-8.575519607422493,33025,9.0
16.2421875,64.0,-1.1337419223718541,-4.098060264110416,-4.001583969710538,-5.625224297638667,-5.826378661806245,-3.2903910837619463,-7.319402896112493,-8.646618405662892,-1.861093247284046,-0.7129596546566859,3.000245332764237,0.5252198022507883,1.8649468864706904,2.3329964915387507,33025,9.0
16.25,65.0,2.277684567819577,-1.3482215209858879,0.16973151267946207,-1.3220949438520364,-3.9415151808550064,-3.536297378856432,-3.5898079684056796,-2.46906619586737,1.3365088982523474,3.8235473027278033,5.808171718495046,8.33546929271425,2.992555285413033,9.037221107726054,33025,9.0
16.2578125,65.0,3.844210040806928,5.884423115148408,2.711417374878124,3.738841235294757,-0.08722312088849549,-1.975613164940583,1.0580232898288529,6.012906764628141,5.472704483072704,8.221871588882848,7.596277912752598,10.359469654432246,2.842217476469415,5.507319269131457,33025,9.0
16.265625,65.0,3.173449086628864,8.304012177097334,3.4187919587546247,3.479761767893777,1.4156495162637412,-0.9648709287473878,2.279999621217428,6.306124203544115,4.674609045762466,7.059118898086339,8.008607140237189,8.28719404858596,3.2905095423332966,-1.2626278367418706,33025,9.0
16.2734375,65.0,0.7136002951458664,1.5316731864146789,3.882187451580421,0.5370437759560787,3.1381526556740766,-0.05108762831805791,0.853351323472225,-1.1288604783950689,-1.1237478826903526,1.9316171323109899,8.035612264519742,6.27822585978096,5.5632161572627155,-2.728803976327896,33025,9.0
16.28125,65.0,-2.6344759433361133,-5.5769246988909345,4.033698661688433,-0.21663938582294406,3.4311119256115177,0.03682109586353022,-1.4458278276408834,-6.365851255955434,-5.867778097862427,-2.00031429246971,5.429215303438383,2.9524207011418895,5.579988956186682,-0.5921454440615861,33025,9.0
16.2890625,65.0,-4.237108882153464,-5.012366936953654,2.310787636324946,0.15284125214218136,-2.019280714631293,-1.6397197922510856,-2.2159033793742253,-1.923155413877069,-2.8687694050916974,-2.5579999099722954,-0.9149590722812633,-3.0985172722617165,0.8599921029814652,0.1457370587315694,33025,9.0
16.296875,65.0,-0.9640279658709687,-0.35631410348204895,-0.5045180452127909,-0.07708723202240719,-7.267460441107644,-1.3806325807635176,1.8668311711534074,8.217101974926322,6.904688792658945,-0.5049562048100711,-6.109760181052948,-6.617175962133814,-2.905078082194052,0.7127552047211054,33025,9.0
16.3046875,65.0,5.087073852578513,1.9615982035426498,-1.3071126749184572,1.1564993450786432,-3.670301303979457,4.019552628629114,8.101307423805622,12.102743278125317,12.615203365572938,1.7707774897912145,-6.135810639627522,-3.615531861367913,-1.4048420213930655,3.121303262484247,33025,9.0
16.3125,65.0,7.134093239231845,1.5165302491401604,-0.2764342858406792,3.7367693190974194,4.043473901168795,8.409605407576379,7.2953700323616175,3.32179397723597,5.1689853393943395,1.0232012988084875,-4.016033567675407,0.36011028974188264,0.8116439078410025,4.243007468907152,33025,9.0
16.3203125,65.0,2.9804012121117864,0.6344959326726212,-1.0645231616817057,3.6121380063319606,5.801509528778837,4.357511601213261,-1.1757063153287817,-9.217185320189287,-8.415286110615497,-2.4440644004934313,-3.623914852944239,-1.1775902968831105,-0.40146977218770985,2.372820750105035,33025,9.0
16.328125,65.0,-2.3268270681599574,-0.03308855216796758,-3.718256269281426,0.18975257852235927,2.423971455416833,-3.0119044837865374,-5.650800887931879,-10.398240189423987,-11.74782442485268,-4.299754716735251,-3.5281466560116144,-3.9435533815312738,-2.5436412870286773,0.44594764070912163,33025,9.0
16.3359375,65.0,-4.282159006403774,-0.5899830579150347,-3.7184476185847615,-2.4790386482281264,0.5075347979372395,-4.319941617731416,-1.488206879361158,0.7445889178524538,-2.2216166305904466,-2.945003069698487,-1.1995603356983935,-0.2992762952475232,-3.2400495107334564,-1.3765089936722603,33025,9.0
16.34375,65.0,-2.9499132816445552,-0.37052858884082696,0.6639708751256421,-2.5919028117803578,0.4106179250234163,-1.7812738085756479,2.09229408584622,9.121054182740082,5.650130929103582,-0.7474296559794595,2.235008199142186,5.525483276890213,-3.1983674464621146,-5.402388096156756,33025,10.0
16.3515625,65.0,-0.09931800984840322,0.907717494916426,4.956678853023618,-1.514701854579755,-0.20243640565976762,-2.097811682440309,-0.36985645250970833,4.3931763920757305,2.3168659771968123,1.0424698680256341,4.1975080650900765,3.234012786142287,-2.0288128208951264,-7.970537613948991,33025,10.0
16.359375,65.0,1.8586387203637145,1.3170805500839293,3.822110354221209,-0.012569660354202483,-0.2533189949127035,-3.1512722339304844,-3.3925359408223414,-6.09991193272306,-4.8201915448289725,2.6802446934911757,3.8892614894176916,-4.481142095069728,0.7426569860040502,-3.490550985932799,33025,10.0
16.3671875,65.0,0.8003439124875484,-1.0379176945603348,-1.313128281913336,0.5541742415101965,-0.2787462744074247,-1.155696162774575,-2.936370900034291,-8.255673405616307,-4.023955265887395,4.014285899568748,2.412180886429951,-4.559067721309319,2.6633487341394044,4.548429196872476,33025,10.0
16.375,65.0,-1.6242042479093755,-3.3695942281781583,-3.233983665333838,-1.7175085052417671,-3.3527352557658645,0.3152973806269159,-1.9808685924341205,-0.16151826745166886,4.108145873670651,4.5463170765422944,1.3472202496220973,4.15418284877164,1.9960875975481116,7.177493179260225,33025,10.0
16.3828125,65.0,-1.7179985891981602,-1.0688557391618048,-0.13847291316533017,-4.128578729486975,-6.122443353157195,-1.1767736068583758,-3.1128021454280628,4.8627294809428605,6.76272173850451,2.4266349673552696,0.6377263567058264,7.947552339189556,0.6617581727403206,2.391507061673593,33025,10.0
16.390625,65.0,0.14491603973225153,4.03602340840591,1.6734824332372114,-1.5401853827147818,-1.428269994206076,-0.7691388510060762,-3.6040938000964786,-1.7486349533422896,-2.0452171718171144,-3.2275788258261144,-1.380490589511723,0.5600295920385321,0.3382397039015359,-3.125742388996244,33025,10.0
16.3984375,65.0,0.12268001263956307,5.395497192010012,-0.2013999848889796,4.30791402759553,6.69483755413728,4.024439378898762,0.24498361337339247,-8.635703612611081,-9.508559830013354,-7.449777960524671,-4.249745315145802,-8.081448385162858,-0.29255212310702916,-3.6912923701838736,33025,10.0
16.40625,65.0,-2.4639721073079244,1.4706978391983228,-1.3284045474586463,5.896447988253371,5.6663530041066394,7.1787245007378,6.2698955754027565,-2.1523540519248456,-3.2257102148429624,-4.862896549792353,-4.6589646162622955,-8.669915943540587,-2.1790986982493337,-1.0029624424215342,33025,10.0
16.4140625,65.0,-3.3124350522724058,-2.9787193952045072,-0.5376152044726297,1.4788861533986477,-3.9736320738020936,3.6133843291254664,8.066448701833977,10.599706302160868,7.9261186729778785,1.2212330103356948,-1.358360624709789,-2.3511978311831854,-2.643534884640374,1.4226573089252241,33025,10.0
16.421875,65.0,1.0073924576980744,-3.560847719290834,-0.3633251666757076,-2.3758859864810375,-6.2043558298261985,-1.8981274100639638,4.261599696448016,13.457330370609355,9.190400105322539,4.133342114436118,2.643052898231389,6.12041600873772,1.0855893318525602,4.564712566191602,33025,10.0
16.4296875,65.0,7.186811090825543,-0.2699490436791194,-0.07992514949619078,-1.1068466188699801,4.61541822621875,-1.4173748040866627,0.5230258139597339,5.704696585936759,2.851061070226109,3.351622182488285,4.011471063024047,11.422650686494691,5.796302186183951,8.253292282585363,33025,10.0
16.4375,65.0,8.022668251875501,2.733074439736157,1.8790889305485052,2.0305682560594533,12.562154040663401,3.497133265280766,0.5123877978985547,-1.6074863007569036,-0.6836184315923362,1.5614180464791332,3.039057470281435,8.967592285803676,5.366725702063107,6.531515248499446,33025,10.0
16.4453125,65.0,2.1791342246782506,1.5382164793964392,3.648900429838889,2.458683893204025,4.7310099884388706,3.415130158983658,1.2259600207500938,-4.358426533393981,-0.5465464867127139,-0.5290776567374422,2.4094475551546424,1.562043161531193,0.061481510023639885,-2.7414184994888444,33025,10.0
16.453125,65.0,-3.4158390962783045,-1.8024082436848374,3.1572525562474,0.2984466947823421,-8.727065947907363,-3.9060638864135058,-0.408946534845839,-6.108935053502762,-1.5862977818375583,-2.183214820432198,2.096381463656968,-3.806135040257999,-4.018432849318913,-11.37924454841226,33025,10.0
16.4609375,65.0,-3.674665446120983,-2.4479599601822315,0.33037674257955985,-2.265713245135771,-11.646198431697883,-9.520593728289725,-3.083015780279837,-7.30844032289049,-4.2283020872000066,-2.0829312614507813,-0.9658246039626448,-6.032661277217599,-3.7464964540179437,-10.946105551250824,33025,10.0
16.46875,65.0,-1.7882012593120038,-1.4168250317687807,-4.131133099314766,-4.178041290439708,-5.652853695525877,-7.494870236675396,-5.315138860158058,-5.574825628668847,-6.140245282813282,-1.159314345346388,-6.3185779523812045,-7.285918388093947,-1.7350754738830858,-3.462361293098269,33025,10.0
16.4765625,65.0,-2.0811134937367655,-2.984538474284946,-7.767719260403652,-4.527879263672503,-2.349711078208344,-2.4615755175158682,-7.010933553635894,-2.351133797917612,-6.871286586007159,-1.4169157534484071,-9.068027953832996,-6.684756833168095,-1.99746100525158,1.5600156598406016,33025,10.0
16.484375,65.0,-3.11384423039695,-4.932634499094135,-6.817982601573988,-2.7029384372611958,-1.9691468016138742,0.07500076105962705,-6.350462161312521,-0.5161958106192088,-5.944723769077143,-2.270128189861069,-6.915282208629677,-3.882608920341667,-4.338612986233599,-0.8791887456412582,33025,10.0
16.4921875,65.0,-2.1850934128575545,-1.5644553011061646,-1.0651253675063543,-0.10014607636662731,3.0467599875058937,0.38493917507229014,-2.427327205881639,0.7619938541412381,-1.1819967553389574,-1.125346105812426,-1.6123061156181535,-1.0781435663091372,-3.4261663430726657,-4.116056602418368,33025,10.0
16.5,66.0,-0.7847657930489902,4.973410796114365,4.685237090734589,1.350958328256624,9.540245239742063,0.46105741252597454,0.8671027338088919,2.7715651783189656,6.297774660001878,2.326293850634798,4.811621722159117,1.107606646314764,2.860106529908947,0.5793200732819344,33025,10.0
16.5078125,66.0,-1.0224130446830628,6.617954208190994,5.929602078322603,1.7979151679772372,7.546609799979564,2.0644938198935847,0.9384535101374354,3.9311477557928924,9.91181250349554,4.788994061417526,9.431639216170751,3.397215799746334,7.837441698020214,9.1818490204098,33025,10.0
16.515625,66.0,-1.3337541899773413,2.1551262335456016,3.426626518542804,2.5739799640921035,-0.28797887275730716,6.619599375401165,2.488685225471656,3.67651085160189,6.5743676802680255,3.890033226029587,8.807952232601593,5.1015123877457285,5.791369195750775,10.586357453136387,33025,10.0
16.5234375,66.0,0.6859791663111139,-0.9802902001872411,1.6182179829647367,3.9184887827231307,-2.038685008416465,11.037601488157975,9.149856360679479,3.902754874992368,2.517689608461822,1.6549290786273474,4.326239405474425,5.389999074804578,1.1263466631471886,4.680294002605635,33025,10.0
16.53125,66.0,4.302585479714722,1.2194741213172478,1.7635612574764963,4.344095118863706,2.4620741509572497,9.005010291860856,13.918684752409035,4.471718620270622,2.9061436398811935,0.7396211172187606,1.0571586322330262,3.876761666264045,0.06883502893650473,0.8541224710584174,33025,10.0
16.5390625,66.0,6.204217545335879,3.359793023315845,0.31029495342033897,1.9893926750056607,2.263045221433842,0.46803131479239823,7.961188952859416,2.7436458421208414,2.9112370628538145,0.19672015179521907,-0.1922436132672516,0.21053651841749854,0.870385364896805,1.4650413680129049,33025,10.0
16.546875,66.0,4.0683190616549325,0.47929190996512716,-2.403085995033109,-2.0720833040077196,-4.113061446164281,-6.849703110686278,-4.722851422015026,-1.3084044359274003,-1.6450003915459064,-1.382507870727693,-1.8899793540245184,-2.452953407093048,-0.12178973867648324,0.6416569193527835,33025,10.0
16.5546875,66.0,-0.3036618907352704,-3.5200371152531034,-0.8761316765098002,-3.805117077529161,-6.4668319654848005,-7.874587739494245,-11.590384817476192,-3.9256312729207963,-4.343022207193243,-2.0318252461543835,-2.6549338117154804,0.7034715174448394,-1.0169824752833136,-3.0997088202338148,33025,10.0
16.5625,66.0,-2.5202926545782702,-3.5517764403388696,2.9986781316416398,-2.3334636908752486,-1.7430978820322025,-5.476720112215844,-8.0130560488291,-3.234219023029638,-1.1524980998314902,-0.598509405211658,-1.419781654615008,5.719083444528366,-0.5688854282633571,-5.080061944196842,33025,10.0
16.5703125,66.0,-1.2126359878636634,-1.7004779676652788,0.505204663292318,-1.4567852212367,1.567944011303382,-3.701169335296143,-0.7005885868240256,-2.285265161572042,-1.0476338723630363,-0.889057446032183,-3.3086740273250683,2.6747206741891034,-2.492858774573378,-3.773284546305277,33025,10.0
16.578125,66.0,0.6806341366675497,-1.1527934138243694,-6.7108998592904925,-2.2685001220069836,-0.39304224980672586,-2.015263854876949,3.2489836703454955,-3.1646070246614926,-8.763489811531372,-4.908167451005795,-9.353159409639687,-6.7301739458254985,-6.745409616056335,-2.588732636108432,33025,10.0
16.5859375,66.0,0.7756792845304261,0.7891900598923627,-6.359421824719462,-0.15253804695365147,-1.440202984554432,1.1096655855499193,2.2263456135282524,-3.5719192505973183,-12.368756953788008,-6.475626235027875,-10.786045762929419,-10.726871009753822,-7.203898835317631,-3.5848636275872394,33025,10.0
16.59375,66.0,-0.48369479833299067,6.943489130663949,4.333797090963458,7.38512267808278,1.7177067786872868,3.7300077978483728,-2.767848603635798,-2.9827877256951467,-3.3532567820771817,-0.4879185643168853,-4.651189186856072,-7.779489880978517,-2.773103303283264,-5.432810440303413,33025,11.0
16.6015625,66.0,-1.999313168026518,10.798715772054493,11.784014798759543,12.677792838540299,4.282421995252747,3.2773358396347447,-7.1844416232244726,-3.1092739749826848,7.783105059813479,6.252230877450572,1.2719191863919974,-5.237780772085102,0.8770779088650897,-5.034986678643662,33025,11.0
16.609375,66.0,-3.019153820957584,2.520240617250252,4.973298131475929,4.897221918876497,2.4717184475711207,0.6570152995982141,-4.185625369936162,-1.4134921503665652,8.602150888929273,4.355408216975775,4.4985868088490975,-1.8690920206765185,1.8125408436427648,0.0678129174715707,33025,11.0
16.6171875,66.0,-3.1973208211196606,-13.592418660279435,-8.592785473126781,-12.411282229521518,-2.1143137096603795,-1.8542275002764086,4.346445263749004,4.510527027630829,1.6724090122037154,-2.577512449512298,9.000173423159993,6.551145701857436,3.025618855972013,6.721043177078954,33025,11.0
16.625,66.0,-2.6172524035532945,-20.607152991494146,-14.038822781704482,-21.539665873770133,-5.2789696399696595,-3.288258372536532,8.555871486924246,9.92838422385357,-2.808453489093651,-3.572595296310027,13.378337384150555,13.528537952739512,5.560908419366029,8.592091737257363,33025,11.0
16.6328125,66.0,-0.6346436964908833,-10.806417917338209,-7.9218587217706755,-12.942439000801059,-2.7042765496980365,-2.5226012628782826,6.195164678872473,9.899493921300873,0.4709182814143986,2.7686811647909053,14.209320985161952,12.400910400544134,8.21796493704025,6.985698948284551,33025,11.0
16.640625,66.0,2.5839143229507044,4.734608406883467,1.0456410041743425,2.5730961688651774,3.3222827650457134,0.7277469486073755,3.506743040765542,6.129723887613622,7.461058910895105,7.561343582718067,11.368378795403217,7.401203854955753,9.00809738603057,7.705558792203689,33025,11.0
16.6484375,66.0,3.7381244278334833,10.558037227594667,4.1639832994767545,8.806802852735771,3.2689749750061594,3.3249942313672562,2.0783680700270537,1.2697491983454796,8.006199305621294,4.62726831854107,2.8308020480848484,2.030240374848063,4.365125327738028,6.759347167558445,33025,11.0
16.65625,66.0,1.0941980250546806,5.490141699644596,1.9320977680004177,4.636352571889034,-2.8603301207597838,3.3024579177464375,-1.0156069331305986,-4.368209270440417,-0.6552807931787044,-2.6497080885894775,-11.085516396147696,-6.545650359522909,-5.287409772105818,-3.160653510109668,33025,11.0
16.6640625,66.0,-1.1130674580902706,1.3216733651159416,1.1383956724779267,1.6238332659329728,-2.1686416395482837,3.608057273733138,-3.6662799800292873,-7.696421315515721,-7.098643192568886,-6.02744169709554,-19.262767780656347,-14.483972339712167,-11.026154726601249,-14.057000957657891,33025,11.0
16.671875,66.0,0.7232982939514159,3.7280946931152386,4.175377572197689,4.678048387216336,6.536447955873143,4.83173929169422,-2.1876571141250025,-5.198806619895194,-2.7311699243453518,-1.9822634568341044,-12.95794303641783,-11.571676743390555,-6.391333229019082,-11.639051883004697,33025,11.0
16.6796875,66.0,3.2719812270589586,5.879441081530771,6.650473476522521,7.353438110274709,7.732836505854621,2.3105238460667152,-0.17693039001714794,-0.8093723250306226,4.1610375160566235,4.035503997525353,-1.249593405037146,1.1626938993395584,1.9068923198058485,0.8497779217786814,33025,11.0
16.6875,66.0,2.4085610283591166,3.3943530770142303,5.730758789619273,5.77664619525784,-2.424512641945384,-3.6825392847646157,-3.0228086769048446,-0.8580335915213482,3.101742563437625,4.9327812657478916,2.9248754810660955,9.489821358738695,4.300737827763044,7.791170857049067,33025,11.0
16.6953125,66.0,-0.16538729559022158,1.2788512172721767,3.936876191797566,3.721418216467768,-9.235984402712518,-6.378091598722477,-8.199948837238807,-4.03863753374516,-3.003941969879179,0.8253860189192608,0.751294619972839,3.5264913054494826,1.3869670617542766,3.8703185540125418,33025,11.0
16.703125,66.0,-1.136288874058863,2.518467764232284,3.373035567649268,3.183984832172584,-5.211340240995966,-4.515569266846555,-9.311159842547696,-5.550494274242666,-6.927059393864326,-3.5982151177350232,-1.3830287164790462,-10.392469702058179,-2.1180679702167424,-3.6024055179283323,33025,11.0
16.7109375,66.0,-0.8688848721623259,3.307177880865268,1.7619777329888962,1.4525101431413106,1.3648898168555945,-3.1040863523646465,-4.873387153188332,-4.485528459726112,-7.628172876336379,-6.084798819561158,-2.9297734469493264,-15.591138942967788,-5.093782242658165,-6.791732475149701,33025,11.0
16.71875,66.0,-1.1802552079565203,0.8960861413415557,-3.0819685480835517,-2.289320221492318,2.9858762872238174,-2.7274087152292594,1.922495766936862,-0.6346950026996723,-5.5016759391182575,-6.33423376762947,-2.819509599011809,-3.8581729796138546,-5.672157276263917,-3.417094038836467,33025,11.0
16.7265625,66.0,-1.8621026188148448,-4.0413672217497805,-8.196826573501667,-5.775154226636374,0.7203954173544389,-0.43016251804907313,7.601331164592935,6.330580282300474,0.247422942745132,-3.266046988688416,1.591485782756422,12.574919697526553,-1.7695891760901077,2.0603411522786104,33025,11.0
16.734375,66.0,-1.7921526086194177,-9.560578073959121,-8.791019467462775,-8.016120428862536,-1.681459958907638,2.4651570337366877,10.143212998314738,11.656356487961034,6.751377467226533,2.386283727547891,6.900574860345671,16.299434497139274,2.8873962283109478,3.111963021609853,33025,11.0
16.7421875,66.0,-1.0238377797681721,-11.343178046005107,-4.850498797652662,-8.951343868267344,-1.9529916395688929,3.3947263855800713,9.437914113041884,9.642528827104087,8.725732811605923,6.144583108373951,7.8576398393740305,8.152320609278874,3.9790296444276123,0.8117866758609154,33025,11.0
16.75,67.0,-0.09453803393763849,-6.619847703776358,-0.4262725396608147,-6.774145793033867,0.8866727289237843,4.035643364929911,7.060274464300306,2.4070959874472635,5.319946788753768,4.745264111340674,5.646388355932103,2.067727844650136,3.4978405842096834,1.5784991938518829,33025,11.0
16.7578125,67.0,0.7197645424691643,0.0942252604049969,1.7268692957580782,-1.0573441210727879,6.012437002875458,5.52612142210468,4.270074203429473,-3.2552224886412375,1.0277143454503914,0.7615647056095867,3.7556265575577754,2.2452924128025415,3.905034729323347,4.4411977480384905,33025,11.0
16.765625,67.0,0.5412200547088872,3.1213569808180495,1.1178460125118335,3.7216305501119535,8.544473040469896,4.132387025014154,-0.022151071364561403,-4.846742057283834,-1.0787668850084344,-1.410516249817661,1.217767955907334,0.5963848391208586,2.588294128391226,2.1065213721352336,33025,11.0
16.7734375,67.0,-0.9918032217786532,3.9961750479923808,-1.2466533796337558,3.975433546104469,3.4625447428991265,-1.8481586773813632,-7.250269607719403,-4.693471715250396,-3.15196223480271,-1.4718317083979144,-4.154757235029251,-6.094987533961415,-2.2594425602321877,-4.9585006335549195,33025,11.0
16.78125,67.0,-1.6860069009907477,6.5333272085559315,-1.5747462407425843,3.2890111481016504,-4.825734458900669,-6.42879642613633,-13.87881874369539,-4.630147107529922,-6.295104733059546,-1.49991759527272,-9.18715310370905,-10.018474484337034,-6.410456181395304,-7.375311382442106,33025,11.0
16.7890625,67.0,0.16898607184215564,8.529165906734377,2.48842850565201,5.364552448901506,-6.556507928173801,-4.199380575262012,-12.603298447695522,-4.260289989265289,-6.123717937473913,-1.901422445161586,-8.849216933955574,-6.5543592135063875,-5.396950497048678,-1.759870483761361,33025,11.0
16.796875,67.0,2.3389908260339354,5.3314855830195,5.688078509804939,5.950742632439599,-2.248811841639707,0.772179302265684,-2.860097375092508,-2.8071094539327675,-0.6636885508665387,-1.9078851828157752,-4.660710246366662,-3.005036646297441,-1.022561135830415,3.8261270525124615,33025,11.0
16.8046875,67.0,2.9055532793585144,-1.418419820437137,3.034352744088679,1.1564577493438861,-0.7565894261871762,1.5674378865650453,5.904304580085238,0.2375396980267226,4.753249165101607,-0.06097091579917446,0.21087039406359054,-3.5051450533371593,3.446122324452176,3.8916007228992697,33025,11.0
16.8125,67.0,3.4386994197389242,-5.064929823559481,0.2067521665759955,-3.7621134880087084,-3.1041177798297213,-0.9054499243768248,6.843748431649672,4.752003296582615,6.403415732098338,5.122871821103601,8.792720349890402,1.1099589681892326,8.597762647715726,4.295734989269761,33025,11.0
16.8203125,67.0,3.7659638032771454,-3.4549821750123897,3.255986706469585,-3.5050022132699468,-3.0206107811905127,-1.1140543017810671,3.930961186498749,8.158070108258386,6.434462882819034,9.969362488669177,19.336915508109186,13.627867461198605,12.695967341693404,9.150024408984521,33025,11.0
16.828125,67.0,0.8315995951445814,-1.6475029843847437,5.722363864963299,-1.4674038900644462,0.023487905443701607,1.0924414934299733,2.3522721826351614,6.7108560840177915,4.803073696194687,6.9242173988318,18.38071463118949,18.179168654216483,9.235264309349887,10.44401731255003,33025,11.0
,,-4.2545204335427655,-3.6221782304962886,-0.3325777849938021,-1.9585436338626891,1.2772195380531741,1.0414348928539994,0.7924934380332047,0.7823510947295489,-0.8780109808252803,-2.896691606181335,1.059581734265322,4.620766776448974,-2.2774545172717495,1.455437687135415,,
,,-5.793939954488465,-5.769699405698276,-9.31906080998165,-3.152921737774193,0.39486678414394305,-1.626173125379978,-1.4766238485623262,-3.9974745597039174,-6.645926391760483,-8.590740795755707,-17.115171899314106,-13.112866895483066,-12.768312428527878,-10.374541550822286,,
,,-1.9418293627072671,-2.383234445933425,-10.146410598295262,-1.8220517799860403,0.9701466486743868,-1.8983290694641681,-0.8764019431733914,-3.1353521861645106,-6.426987666798496,-6.249156876464596,-21.715540701544427,-17.483870859613802,-15.088316457717369,-14.023549488199578,,
,,2.539254861347061,4.945258355976037,-2.4873911707195617,2.2886695353201816,3.255259410351684,1.4136340502707867,2.4261549803802183,0.6808792094631286,-2.7809018405867647,-3.3920500831977307,-15.706682914961505,-9.856033376571872,-10.859596012070952,-9.077316134239396,,
,,2.7119586734783923,8.564715162032272,4.500456654029804,6.716053726257869,4.072174920410717,2.987337816129724,2.7239246229959946,0.707293264007447,-1.6008337765712923,-3.6626050877185747,-7.475816247600562,-2.00294382243095,-4.86186921035096,-2.917544873168879,,
,,-0.6678572796581079,5.1647888326760665,5.803229553261247,7.587683313228013,2.2475205367265545,-0.005347350851138799,-1.4167333993196962,-3.947767905635331,-1.464617485048393,-2.2852809264774265,0.5933963372349638,2.2393172899988087,1.134098319630425,-0.31623628662096337,,
,,-2.4454473440577544,-0.08963746702549713,4.424416408574004,3.9170435998058366,-0.22247827025505273,-2.7727593143155502,-3.643438370896618,-6.096527847362552,1.4700578336431391,1.978145276346254,7.600869096526509,6.393509410543615,6.888303688640804,0.478250317029719,,
,,-0.6233393941294736,-1.5581226460389672,2.7352236049595433,-0.6002311482897653,-1.3046057346041238,-0.019409547501382463,0.16562574743902303,-2.049065897343482,4.226950274002135,3.8204642561270674,10.23375505015045,8.74707541629732,9.2298609858926,2.264059638046362,,
,,0.16996392248333336,-0.5075644988478842,-1.0400713612276036,-3.224247629773032,-0.8938653700912624,4.989545810578747,3.880074752747234,1.2690556081535789,1.5303248076821632,0.9443564523514851,6.824380818875312,3.4173967521710296,5.04563974559909,2.6742443718371476,,
,,-3.0165650232077184,-1.25023517918342,-6.018566448918179,-4.804176731385937,-0.5034496582573382,3.3657670631248777,-0.7380180475105647,-2.0714104498065637,-4.484826909425465,-2.2592743112966502,1.178038113238486,-5.748549582279253,-1.6691816274930886,-0.8141534520536453,,
,,-5.182690723646488,-4.146473548962561,-7.221938306692465,-6.011676571154865,-1.3626169814120601,-5.140110632531346,-9.60713010528022,-5.842842113957005,-5.914558287371406,-1.1709436587343163,-0.2044791565827211,-6.85083710582947,-3.6056043084861926,-3.378131661194118,,
,,-1.4848677575969589,-5.511076771582296,-3.275724498483612,-6.397112037174367,-2.5145937248210117,-8.820482388709834,-9.825966247930026,-1.2321838405848382,0.30329951653983755,3.2182911967881864,4.0042670480798535,2.047989973024727,0.04097424506437619,0.8860457749873092,,
,,4.9195541510328695,-2.248643457489777,2.0233935304133297,-5.547078293780089,-2.4444942449509597,-1.9790422910686516,0.36381889432097125,8.621046375695798,7.712409539938307,6.102868131183442,7.7505864054724185,10.661241324354222,4.364931653750389,9.246029253368818,,
,,8.121690547434667,3.487261202423454,5.776885601613785,-2.512491547676376,-1.6064634835700815,5.450208213042444,8.188083890938643,12.75808765590078,8.322003490176286,4.926830745151207,6.162312327914506,12.244974111472374,5.961450302790539,13.519445668497738,,
,,6.575134310774615,5.1115556570935325,6.805542292215833,2.3829427225853124,-0.2098183668050524,4.9717384297752005,6.6211770446093965,7.7245884800710485,2.9226633568523397,1.6292294740068627,1.4855132756412388,8.574879851928344,4.836205890605626,9.632943748876329,,
,,2.333968267218893,0.48600057832123866,3.368244070329979,5.688317820027521,2.8947625716009497,1.7040497125166354,2.8437738631578213,0.7317070100395142,-1.1614062937328242,-0.6338074195724488,-2.243217256613846,1.7923748497815666,2.4154257785897073,1.0987549365785583,,
,,-2.066478850107586,-4.360708740425082,-3.1024574680871524,4.858691058528009,5.508818417987683,1.675775126602261,3.023380869941903,-1.9326526736118552,-1.1286895297512274,-0.9976799624079149,-4.388203751865021,-7.294961057132269,-0.5222786681447644,-5.7262766562859895,,
,,-4.814490367483387,-4.677155065251611,-6.354477348863526,2.080614529761533,3.1278204145041144,1.7348101273831844,3.6412774761430313,-2.0982562170988928,-0.7239859293066928,-1.0352033008500285,-5.491716130845845,-14.727812385636526,-3.9075031968529856,-8.393196112310292,,
,,-5.2484259754021,-2.1817242758805975,-3.247910733005668,1.0795332000597995,-2.4293374942353836,-1.587750142227378,0.9695982375284729,-3.4506419229444134,-2.2771115443381547,-2.0290957450630174,-5.127807008615022,-14.994672170030483,-5.994319416360241,-8.419250014893365,,
,,-3.4601194863850253,1.8700084798646799,1.7606507813471666,2.7154057815882737,-4.303681224773143,-4.747402530504544,-2.4414503573707123,-5.175426736322024,-4.035597874771341,-3.177438765174145,-3.613557748629262,-7.418853277450481,-4.767761780660976,-6.638652812206203,,
,,-0.2719011676479255,7.9139554072338,3.588888713120568,5.0117655288721465,-1.378422303601937,-3.58746091082908,-3.490764352106467,-5.076530555263886,-4.644404439402422,-3.570442658637276,-2.655552061537122,1.8554405292510268,-2.6889679311893246,-3.2685053719757065,,
,,1.9101441822300274,11.244503533166565,2.3865612907556084,5.006522286013663,1.12939764656754,0.07610154338713926,-3.2033310626750335,-3.6234896356605475,-4.2791767690602,-3.6118109135693572,-2.943891926197253,5.552380959839567,-3.6194253382050903,-0.46354069160172173,,
,,1.1593483071357298,5.912989856344566,0.8038753729974388,1.3086706869571714,0.6591596360065779,1.9600739574348012,-2.989001153468621,-2.1857213975402914,-2.032004660741535,-2.76651913095219,-2.40868923286817,3.57302535497557,-4.780568030430018,0.2832897898628062,,
,,-0.12669288648299926,-3.980758706662016,0.12583771675801358,-3.455151829285583,-0.4610867162169541,1.2921510235358227,-1.7258638375771795,-0.4078575534491904,3.159262612317292,0.36743544506980186,1.4989564773880062,3.004347095140375,-0.19379146793646385,1.6637358997199243,,
,,1.9691588529096435,-8.281216537430893,0.03621191221722597,-5.41524031529984,-0.19174316475294972,0.3141275406975126,0.6112334827904533,2.63062089805139,8.73052787122171,4.233426233190642,7.198990900789795,6.877971479381301,7.622954582541212,6.410359614359564,,
,,5.085319662563336,-5.617071653830038,-0.320882622882138,-4.991079613439084,0.6953410500988184,0.42727355188050353,1.721354078269897,5.565260079044364,9.477390602084824,5.335641479276887,8.620020081608317,7.8434338843386655,9.16425649696356,9.839809158288006,,
,,2.6656919939338906,-3.1332916047173,-1.4859986882902945,-5.2632564716680434,1.0184184673600072,1.1273363808402053,1.2386296185790684,5.3292633547055175,3.923436832135792,3.664310725292353,2.2545983773796365,-0.48022458193342743,2.2701344339916147,3.8126134319039124,,
,,-4.275758517701618,-3.262079081769869,-2.961490283154461,-5.484302806330774,1.085517619655974,1.0680712881997607,0.4387307433537444,1.6341039878521286,-3.283193297594039,1.6895951653277166,-6.434114135036779,-10.235904996806,-4.5273326291077325,-8.67284279258918,,
,,-6.950899247871732,-2.167909037760367,-3.581878086399655,-2.4179323749382178,0.5790382915602379,-0.703608483452058,-1.5799387315789772,-1.8576960741572037,-7.131252939103973,-0.8306898504104794,-8.146015360890658,-7.880430646384653,-4.329988855520114,-13.005482324222783,,
,,-2.8842616809691606,0.912525286104497,-3.1215347301872924,2.178722353539314,-1.9181629774017068,-2.9927227139404664,-4.697282391870431,-2.810430746334731,-7.561492793787451,-4.71893854066964,-2.0743937239290204,4.393894307842757,0.1105268277964484,-3.945870205268619,,
,,0.48846462011367464,2.860854042971667,-2.2485305610173043,3.206564136995837,-3.949357195629972,-2.7844117835911533,-4.248174341383191,-2.8528804855929906,-6.802465419685674,-6.6452351822883315,2.6996075444254473,10.325665234385141,1.8759890585660628,5.326332041661843,,
,,-0.6677231816723719,3.286443969150497,-0.11957697902160191,1.7332576016277557,-0.3663593647913217,0.3569770623984567,1.6491941974941682,-2.575010684163587,-4.222106403259517,-3.2443475303225,1.0448680944636521,5.860613483493083,-0.7243769040321411,4.324179889321044,,
27.984375,111.0,-0.5655650088559838,4.535328738837819,4.541019384143766,3.4996466839697007,6.0997790348121015,2.6045295552668932,6.803725848439157,0.3329604647271225,1.8851139383995417,2.7805663260567712,-0.45211050491747073,3.445493672977719,-2.2224506886578723,0.7663071298156581,33026,12.0
