Time128Hz,Epoch,AF3,F7,F3,F5,T7,P7,O1,O2,P8,T8,FC6,F4,F8,AF4,EventId,EventDate,EventDuration,ID_Chunk_Number,ID_Chunk
13.8515625,55,4113.3334960938,4135.5126953125,4121.9228515625,4078.3332519531,4093.8461914063,4125.5126953125,4082.8205566406,4119.615234375,4094.2307128906,4140.1284179688,4143.8461914063,4114.3588867188,4122.9487304688,4143.3334960938,33025,13.8591737116,0.0,0.0,
13.859375,55,4111.0258789063,4124.615234375,4108.0771484375,4076.5385742188,4095.7692871094,4126.2822265625,4075.3845214844,4125.2563476563,4099.3588867188,4142.6923828125,4137.6923828125,4115.6411132813,4124.2309570313,4138.9741210938,33025,0.0,0.0,1.0,
13.8671875,55,4112.1796875,4126.9228515625,4108.4614257813,4079.3588867188,4084.6154785156,4111.1538085938,4065.5129394531,4121.2822265625,4093.3332519531,4139.8715820313,4138.3334960938,4126.9228515625,4122.5639648438,4141.2822265625,33025,0.0,0.0,1.0,
13.875,55,4117.0512695313,4139.3588867188,4125.1284179688,4089.2307128906,4080.8974609375,4108.58984375,4067.1794433594,4119.1025390625,4096.0258789063,4139.3588867188,4148.58984375,4123.7177734375,4124.3588867188,4143.9741210938,33025,0.0,0.0,1.0,
13.8828125,55,4124.3588867188,4140.6411132813,4136.6665039063,4093.8461914063,4092.3076171875,4121.6665039063,4080.2563476563,4127.1796875,4109.2309570313,4142.1796875,4147.9487304688,4119.2309570313,4126.9228515625,4145.2563476563,33025,0.0,0.0,1.0,
13.890625,55,4130.0,4137.1796875,4137.6923828125,4090.8974609375,4088.9743652344,4125.2563476563,4085.6411132813,4129.7436523438,4106.41015625,4137.6923828125,4140.1284179688,4124.1025390625,4126.9228515625,4160.5126953125,33025,0.0,0.0,1.0,
13.8984375,55,4131.41015625,4138.58984375,4139.1025390625,4090.2563476563,4078.58984375,4120.5126953125,4080.6411132813,4123.0771484375,4091.2819824219,4126.1538085938,4130.384765625,4117.6923828125,4120.2563476563,4171.794921875,33025,0.0,0.0,1.0,
13.90625,55,4131.41015625,4138.8461914063,4144.615234375,4090.7692871094,4087.5642089844,4121.9228515625,4084.3588867188,4119.3588867188,4090.5129394531,4120.384765625,4122.4360351563,4112.5639648438,4111.9228515625,4159.615234375,33025,0.0,0.0,1.0,
13.9140625,55,4130.0,4138.9741210938,4147.3076171875,4090.5129394531,4095.6411132813,4124.4873046875,4092.0512695313,4116.0258789063,4093.0769042969,4122.1796875,4127.9487304688,4124.1025390625,4116.0258789063,4149.1025390625,33025,0.0,0.0,1.0,
13.921875,55,4131.1538085938,4142.5639648438,4145.6411132813,4098.205078125,4089.1025390625,4122.4360351563,4084.4870605469,4112.0512695313,4089.1025390625,4122.6923828125,4139.3588867188,4129.2309570313,4122.4360351563,4153.8461914063,33025,0.0,0.0,1.0,
13.9296875,55,4135.1284179688,4144.7436523438,4147.0512695313,4106.5385742188,4089.4870605469,4121.41015625,4072.5642089844,4117.4360351563,4095.2563476563,4124.7436523438,4141.794921875,4119.7436523438,4120.6411132813,4156.0258789063,33025,0.0,0.0,1.0,
13.9375,55,4136.41015625,4142.0512695313,4148.8461914063,4107.1796875,4090.3845214844,4120.8974609375,4081.1538085938,4128.7177734375,4107.0512695313,4127.1796875,4136.5385742188,4119.1025390625,4120.7690429688,4152.5639648438,33025,0.0,0.0,1.0,
13.9453125,55,4135.0,4139.1025390625,4148.8461914063,4105.7690429688,4086.0256347656,4123.3334960938,4097.0512695313,4138.0771484375,4115.6411132813,4124.7436523438,4128.8461914063,4120.6411132813,4121.2822265625,4155.384765625,33025,0.0,0.0,1.0,
13.953125,55,4136.1538085938,4140.0,4145.8974609375,4103.0771484375,4091.1538085938,4127.0512695313,4097.6923828125,4145.2563476563,4123.3334960938,4124.615234375,4123.205078125,4110.7690429688,4112.3076171875,4154.8715820313,33025,0.0,0.0,1.0,
13.9609375,55,4136.6665039063,4137.4360351563,4139.8715820313,4098.205078125,4096.1538085938,4128.205078125,4096.0258789063,4143.58984375,4123.58984375,4125.8974609375,4119.7436523438,4109.4873046875,4107.1796875,4145.0,33025,0.0,0.0,1.0,
13.96875,55,4133.3334960938,4136.2822265625,4141.1538085938,4101.5385742188,4091.6667480469,4126.0258789063,4104.1025390625,4138.58984375,4118.9741210938,4123.205078125,4118.7177734375,4120.0,4115.7690429688,4145.8974609375,33025,0.0,0.0,1.0,
13.9765625,55,4134.4873046875,4142.3076171875,4148.7177734375,4111.794921875,4094.1025390625,4123.4614257813,4109.4873046875,4144.3588867188,4126.5385742188,4126.0258789063,4129.615234375,4127.8203125,4124.7436523438,4162.8203125,33025,0.0,0.0,1.0,
13.984375,55,4133.7177734375,4142.8203125,4146.794921875,4113.0771484375,4098.3334960938,4124.3588867188,4103.205078125,4144.2309570313,4127.6923828125,4129.4873046875,4143.9741210938,4125.7690429688,4123.58984375,4166.0258789063,33025,0.0,0.0,1.0,
13.9921875,55,4130.0,4138.9741210938,4137.6923828125,4111.0258789063,4092.0512695313,4124.1025390625,4093.9743652344,4131.9228515625,4108.7177734375,4124.615234375,4144.4873046875,4129.7436523438,4125.2563476563,4160.0,33025,0.0,0.0,1.0,
14.0,56,4137.4360351563,4140.0,4140.2563476563,4112.3076171875,4088.7180175781,4122.6923828125,4090.7692871094,4121.41015625,4099.1025390625,4122.1796875,4141.41015625,4142.8203125,4138.4614257813,4166.1538085938,33025,0.0,0.0,1.0,
14.0078125,56,4141.0258789063,4139.7436523438,4141.794921875,4107.5639648438,4092.1794433594,4124.1025390625,4092.9487304688,4111.9228515625,4103.3334960938,4118.7177734375,4141.41015625,4139.4873046875,4136.1538085938,4164.3588867188,33025,0.0,0.0,1.0,
14.015625,56,4131.41015625,4135.2563476563,4132.3076171875,4102.1796875,4091.0256347656,4121.794921875,4087.6923828125,4102.5639648438,4100.384765625,4107.4360351563,4137.6923828125,4122.0512695313,4121.0258789063,4152.1796875,33025,0.0,0.0,1.0,
14.0234375,56,4128.9741210938,4133.9741210938,4127.9487304688,4103.205078125,4091.1538085938,4115.1284179688,4080.3845214844,4108.8461914063,4098.0771484375,4110.2563476563,4136.2822265625,4122.9487304688,4127.0512695313,4151.5385742188,33025,0.0,0.0,1.0,
14.03125,56,4133.8461914063,4134.2309570313,4134.1025390625,4102.0512695313,4091.6667480469,4112.6923828125,4086.6667480469,4130.7690429688,4113.9741210938,4125.0,4139.615234375,4136.6665039063,4140.7690429688,4154.3588867188,33025,0.0,0.0,1.0,
14.0390625,56,4138.7177734375,4135.7690429688,4141.9228515625,4102.6923828125,4080.8974609375,4114.4873046875,4094.4870605469,4144.1025390625,4129.1025390625,4128.0771484375,4140.384765625,4138.8461914063,4139.7436523438,4159.8715820313,33025,0.0,0.0,1.0,
14.046875,56,4144.1025390625,4137.3076171875,4139.615234375,4109.1025390625,4076.6667480469,4113.7177734375,4092.6923828125,4144.2309570313,4125.6411132813,4122.3076171875,4137.0512695313,4143.8461914063,4139.3588867188,4170.384765625,33025,0.0,0.0,1.0,
14.0546875,56,4141.794921875,4137.6923828125,4137.4360351563,4106.5385742188,4090.6411132813,4113.4614257813,4088.7180175781,4138.3334960938,4116.0258789063,4118.4614257813,4127.6923828125,4140.8974609375,4137.5639648438,4162.8203125,33025,0.0,0.0,1.0,
14.0625,56,4135.5126953125,4137.0512695313,4139.3588867188,4098.205078125,4096.2822265625,4112.9487304688,4082.4357910156,4121.41015625,4103.58984375,4108.0771484375,4113.0771484375,4121.1538085938,4116.2822265625,4137.4360351563,33025,0.0,0.0,1.0,
14.0703125,56,4134.1025390625,4137.4360351563,4136.0258789063,4101.2822265625,4086.9230957031,4109.3588867188,4075.0,4095.7692871094,4085.6411132813,4093.8461914063,4104.3588867188,4124.615234375,4103.205078125,4121.0258789063,33025,0.0,0.0,1.0,
14.078125,56,4135.384765625,4140.7690429688,4139.1025390625,4110.1284179688,4087.6923828125,4106.2822265625,4073.4614257813,4086.9230957031,4076.2819824219,4088.3332519531,4106.5385742188,4141.0258789063,4114.615234375,4122.6923828125,33025,0.0,0.0,1.0,
14.0859375,56,4135.0,4137.3076171875,4142.5639648438,4107.0512695313,4092.5642089844,4107.1796875,4076.41015625,4098.58984375,4079.7436523438,4089.8718261719,4106.5385742188,4123.7177734375,4121.9228515625,4133.9741210938,33025,0.0,0.0,1.0,
14.09375,56,4127.0512695313,4126.6665039063,4125.5126953125,4097.1796875,4083.3332519531,4109.8715820313,4083.205078125,4105.7690429688,4090.5129394531,4094.8718261719,4102.3076171875,4104.8715820313,4118.7177734375,4138.205078125,33025,0.0,0.0,1.0,
14.1015625,56,4119.4873046875,4120.1284179688,4114.2309570313,4089.4870605469,4081.1538085938,4110.7690429688,4086.0256347656,4112.5639648438,4109.8715820313,4101.41015625,4111.1538085938,4123.9741210938,4119.7436523438,4134.3588867188,33025,0.0,0.0,1.0,1.0
14.109375,56,4114.1025390625,4122.5639648438,4118.9741210938,4089.4870605469,4090.2563476563,4108.0771484375,4080.3845214844,4123.7177734375,4125.384765625,4112.1796875,4128.0771484375,4140.384765625,4125.5126953125,4132.1796875,33025,0.0,0.0,1.0,1.0
14.1171875,56,4109.615234375,4124.1025390625,4116.2822265625,4100.2563476563,4084.6154785156,4105.7690429688,4081.6667480469,4126.5385742188,4126.6665039063,4120.5126953125,4134.1025390625,4135.8974609375,4128.7177734375,4130.0,33025,0.0,0.0,1.0,1.0
14.125,56,4105.384765625,4112.5639648438,4097.8203125,4093.4614257813,4075.3845214844,4108.3334960938,4091.1538085938,4126.0258789063,4127.5639648438,4118.9741210938,4124.3588867188,4127.1796875,4124.8715820313,4129.1025390625,33025,0.0,0.0,1.0,1.0
14.1328125,56,4102.8203125,4105.6411132813,4080.6411132813,4077.6923828125,4086.0256347656,4108.0771484375,4086.5385742188,4126.2822265625,4125.6411132813,4109.2309570313,4112.1796875,4119.1025390625,4113.3334960938,4127.1796875,33025,0.0,0.0,1.0,1.0
14.140625,56,4105.7690429688,4118.7177734375,4097.4360351563,4098.3334960938,4096.41015625,4102.9487304688,4069.4870605469,4115.6411132813,4107.6923828125,4096.0258789063,4107.0512695313,4121.5385742188,4104.2309570313,4119.3588867188,33025,0.0,0.0,1.0,1.0
14.1484375,56,4101.2822265625,4127.5639648438,4125.7690429688,4126.794921875,4091.2819824219,4104.1025390625,4062.0512695313,4099.615234375,4087.5642089844,4081.794921875,4093.205078125,4120.0,4095.7692871094,4109.1025390625,33025,0.0,0.0,1.0,1.0
14.15625,56,4093.0769042969,4124.615234375,4119.7436523438,4121.6665039063,4092.3076171875,4105.384765625,4054.6154785156,4091.2819824219,4074.1025390625,4068.3332519531,4067.4357910156,4102.4360351563,4080.6411132813,4099.7436523438,33025,0.0,0.0,1.0,1.0
14.1640625,56,4106.6665039063,4140.5126953125,4116.0258789063,4127.9487304688,4099.4873046875,4097.3076171875,4041.794921875,4087.4357910156,4068.4614257813,4068.3332519531,4063.205078125,4108.3334960938,4079.7436523438,4105.6411132813,33025,0.0,0.0,1.0,1.0
14.171875,56,4130.6411132813,4164.2309570313,4142.9487304688,4158.0771484375,4096.1538085938,4090.0,4042.4357910156,4092.0512695313,4080.1281738281,4077.6923828125,4078.58984375,4142.5639648438,4095.8974609375,4125.5126953125,33025,0.0,0.0,1.0,1.0
14.1796875,56,4130.6411132813,4162.3076171875,4150.384765625,4163.0771484375,4089.7436523438,4095.1281738281,4056.2819824219,4099.2309570313,4091.9230957031,4080.5129394531,4071.5385742188,4147.9487304688,4094.4870605469,4125.8974609375,33025,0.0,0.0,1.0,1.0
14.1875,56,4114.2309570313,4158.4614257813,4129.3588867188,4157.4360351563,4090.6411132813,4106.2822265625,4070.1281738281,4103.9741210938,4097.8203125,4080.8974609375,4055.6411132813,4135.5126953125,4080.5129394531,4107.4360351563,33025,0.0,0.0,1.0,1.0
14.1953125,56,4129.3588867188,4169.615234375,4134.4873046875,4171.5385742188,4096.0258789063,4113.7177734375,4081.794921875,4117.0512695313,4115.2563476563,4090.3845214844,4059.8718261719,4149.1025390625,4085.3845214844,4107.0512695313,33025,0.0,0.0,1.0,1.0
14.203125,56,4175.384765625,4175.5126953125,4169.2309570313,4188.7177734375,4097.8203125,4112.6923828125,4086.41015625,4125.2563476563,4126.0258789063,4097.9487304688,4062.1794433594,4158.9741210938,4095.1281738281,4116.9228515625,33025,0.0,0.0,1.0,1.0
14.2109375,56,4187.3076171875,4172.1796875,4180.6411132813,4190.384765625,4094.6154785156,4104.2309570313,4073.58984375,4114.1025390625,4106.41015625,4088.3332519531,4049.3588867188,4139.8715820313,4087.1794433594,4113.4614257813,33025,0.0,0.0,1.0,1.0
14.21875,56,4151.5385742188,4164.2309570313,4150.5126953125,4179.7436523438,4092.5642089844,4105.7690429688,4063.9743652344,4104.7436523438,4088.3332519531,4073.7180175781,4031.794921875,4119.615234375,4073.8461914063,4101.1538085938,33025,0.0,0.0,1.0,1.0
14.2265625,56,4123.4614257813,4156.2822265625,4127.1796875,4170.6411132813,4093.9743652344,4108.4614257813,4065.6411132813,4109.1025390625,4096.2822265625,4074.2307128906,4023.0769042969,4122.1796875,4072.8205566406,4090.5129394531,33025,0.0,0.0,1.0,1.0
14.234375,56,4125.2563476563,4156.2822265625,4132.1796875,4170.7690429688,4100.2563476563,4093.9743652344,4057.1794433594,4106.794921875,4099.2309570313,4079.3588867188,4029.2307128906,4128.9741210938,4078.7180175781,4083.58984375,33025,0.0,0.0,1.0,1.0
14.2421875,56,4125.384765625,4148.58984375,4137.9487304688,4171.794921875,4106.2822265625,4092.5642089844,4050.0,4089.4870605469,4082.5642089844,4066.41015625,4026.41015625,4116.41015625,4071.5385742188,4070.0,33025,0.0,0.0,1.0,1.0
14.25,57,4117.0512695313,4138.205078125,4133.7177734375,4164.8715820313,4104.7436523438,4108.0771484375,4056.5385742188,4078.7180175781,4069.4870605469,4048.3332519531,4007.0512695313,4101.5385742188,4057.8205566406,4061.41015625,33025,0.0,0.0,1.0,1.0
14.2578125,57,4124.615234375,4146.41015625,4128.7177734375,4161.0258789063,4097.9487304688,4104.7436523438,4066.0256347656,4085.6411132813,4071.9230957031,4045.0,4004.4870605469,4105.2563476563,4059.1025390625,4073.58984375,33025,0.0,0.0,1.0,1.0
14.265625,57,4131.41015625,4149.8715820313,4125.1284179688,4160.5126953125,4094.6154785156,4096.41015625,4070.5129394531,4092.0512695313,4074.2307128906,4045.2563476563,4014.4870605469,4110.1284179688,4063.3332519531,4077.1794433594,33025,0.0,0.0,1.0,1.0
14.2734375,57,4122.1796875,4139.8715820313,4124.615234375,4151.5385742188,4091.6667480469,4107.5639648438,4081.794921875,4091.5385742188,4074.4870605469,4042.8205566406,4010.0,4106.1538085938,4057.9487304688,4060.5129394531,33025,0.0,0.0,1.0,1.0
14.28125,57,4112.6923828125,4131.9228515625,4119.2309570313,4140.7690429688,4086.1538085938,4113.9741210938,4091.794921875,4091.6667480469,4078.3332519531,4044.8718261719,4001.6667480469,4102.1796875,4058.0769042969,4054.4870605469,33025,0.0,0.0,1.0,1.0
14.2890625,57,4108.7177734375,4123.8461914063,4105.8974609375,4137.5639648438,4085.0,4106.41015625,4081.1538085938,4085.7692871094,4073.3332519531,4042.5642089844,3996.794921875,4093.4614257813,4058.0769042969,4059.2307128906,33025,0.0,0.0,1.0,1.0
14.296875,57,4107.4360351563,4126.1538085938,4106.5385742188,4136.41015625,4088.0769042969,4102.4360351563,4061.0256347656,4075.3845214844,4062.5642089844,4031.1538085938,3988.58984375,4088.58984375,4049.2307128906,4050.6411132813,33025,0.0,0.0,1.0,1.0
14.3046875,57,4104.3588867188,4134.7436523438,4112.5639648438,4135.1284179688,4092.6923828125,4097.0512695313,4045.5129394531,4072.5642089844,4061.794921875,4027.9487304688,3987.6923828125,4089.1025390625,4049.6154785156,4039.1025390625,33025,0.0,0.0,1.0,1.0
14.3125,57,4105.1284179688,4128.58984375,4104.7436523438,4136.6665039063,4088.7180175781,4089.4870605469,4039.1025390625,4074.7436523438,4068.9743652344,4037.6923828125,3998.58984375,4088.4614257813,4062.0512695313,4045.3845214844,33025,0.0,0.0,1.0,1.0
14.3203125,57,4108.3334960938,4121.1538085938,4106.2822265625,4138.8461914063,4075.5129394531,4090.3845214844,4045.1281738281,4073.4614257813,4071.6667480469,4041.5385742188,4010.2563476563,4106.0258789063,4065.7692871094,4058.4614257813,33025,0.0,0.0,1.0,1.0
14.328125,57,4106.0258789063,4125.7690429688,4119.3588867188,4138.58984375,4078.8461914063,4094.2307128906,4056.2819824219,4072.9487304688,4073.205078125,4042.4357910156,4022.3076171875,4142.9487304688,4065.7692871094,4059.7436523438,33025,0.0,0.0,1.0,1.0
14.3359375,57,4106.0258789063,4122.5639648438,4117.5639648438,4133.7177734375,4089.7436523438,4096.41015625,4065.0,4078.205078125,4081.9230957031,4052.5642089844,4037.1794433594,4172.4360351563,4077.0512695313,4060.6411132813,33025,0.0,0.0,1.0,1.0
14.34375,57,4114.4873046875,4118.58984375,4110.1284179688,4131.9228515625,4079.8718261719,4097.8203125,4074.1025390625,4091.794921875,4096.0258789063,4063.3332519531,4051.794921875,4178.58984375,4090.0,4072.5642089844,33025,0.0,0.0,1.0,2.0
14.3515625,57,4122.1796875,4124.3588867188,4116.41015625,4135.2563476563,4069.4870605469,4096.5385742188,4079.3588867188,4107.5639648438,4108.0771484375,4071.0256347656,4067.5642089844,4165.6411132813,4100.2563476563,4077.6923828125,33025,0.0,0.0,1.0,2.0
14.359375,57,4127.8203125,4127.4360351563,4124.4873046875,4136.794921875,4076.0256347656,4093.7180175781,4075.6411132813,4112.0512695313,4108.7177734375,4072.0512695313,4078.4614257813,4149.615234375,4106.9228515625,4081.794921875,33025,0.0,0.0,1.0,2.0
14.3671875,57,4131.9228515625,4127.6923828125,4126.0258789063,4138.205078125,4077.9487304688,4093.3332519531,4073.3332519531,4108.58984375,4099.4873046875,4064.3588867188,4072.5642089844,4149.7436523438,4100.6411132813,4093.8461914063,33025,0.0,0.0,1.0,2.0
14.375,57,4122.5639648438,4119.7436523438,4116.2822265625,4133.3334960938,4082.4357910156,4096.0258789063,4070.8974609375,4103.205078125,4092.9487304688,4054.1025390625,4050.7692871094,4145.384765625,4083.4614257813,4082.4357910156,33025,0.0,0.0,1.0,2.0
14.3828125,57,4105.5126953125,4103.205078125,4096.5385742188,4115.8974609375,4090.6411132813,4097.0512695313,4065.7692871094,4092.6923828125,4088.205078125,4043.4614257813,4028.0769042969,4120.7690429688,4068.8461914063,4051.0256347656,33025,0.0,0.0,1.0,2.0
14.390625,57,4100.5126953125,4099.8715820313,4089.3588867188,4113.7177734375,4086.6667480469,4097.1796875,4066.9230957031,4079.4870605469,4079.3588867188,4035.6411132813,4017.9487304688,4117.6923828125,4064.7436523438,4042.5642089844,33025,0.0,0.0,1.0,2.0
14.3984375,57,4110.1284179688,4109.1025390625,4099.615234375,4131.2822265625,4086.41015625,4096.0258789063,4067.5642089844,4079.1025390625,4077.5642089844,4044.8718261719,4024.1025390625,4147.1796875,4068.8461914063,4053.3332519531,33025,0.0,0.0,1.0,2.0
14.40625,57,4118.205078125,4111.9228515625,4104.1025390625,4132.9487304688,4091.9230957031,4093.58984375,4066.794921875,4097.6923828125,4096.0258789063,4064.6154785156,4041.2819824219,4173.7177734375,4080.5129394531,4061.2819824219,33025,0.0,0.0,1.0,2.0
14.4140625,57,4120.8974609375,4106.41015625,4106.41015625,4124.615234375,4091.794921875,4099.2309570313,4074.3588867188,4116.9228515625,4117.9487304688,4079.3588867188,4063.7180175781,4188.7177734375,4097.4360351563,4070.5129394531,33025,0.0,0.0,1.0,2.0
14.421875,57,4119.615234375,4103.9741210938,4113.205078125,4123.9741210938,4089.6154785156,4105.384765625,4078.0769042969,4122.1796875,4122.8203125,4090.2563476563,4084.7436523438,4203.0771484375,4108.3334960938,4077.0512695313,33025,0.0,0.0,1.0,2.0
14.4296875,57,4118.9741210938,4106.9228515625,4110.0,4122.9487304688,4084.7436523438,4105.384765625,4075.2563476563,4120.7690429688,4121.41015625,4093.7180175781,4096.2822265625,4211.794921875,4111.2822265625,4077.6923828125,33025,0.0,0.0,1.0,2.0
14.4375,57,4125.6411132813,4111.6665039063,4106.1538085938,4122.9487304688,4080.2563476563,4104.4873046875,4079.4870605469,4125.7690429688,4128.58984375,4095.7692871094,4100.6411132813,4210.5126953125,4115.7690429688,4083.58984375,33025,0.0,0.0,1.0,2.0
14.4453125,57,4125.6411132813,4110.0,4109.7436523438,4125.2563476563,4083.9743652344,4103.3334960938,4084.2307128906,4126.41015625,4129.3588867188,4096.2822265625,4098.0771484375,4203.4614257813,4117.8203125,4086.0256347656,33025,0.0,0.0,1.0,2.0
14.453125,57,4113.8461914063,4100.1284179688,4104.3588867188,4121.5385742188,4088.58984375,4098.4614257813,4074.7436523438,4107.0512695313,4109.4873046875,4081.41015625,4080.5129394531,4184.3588867188,4101.794921875,4072.1794433594,33025,0.0,0.0,1.0,2.0
14.4609375,57,4110.384765625,4099.1025390625,4097.5639648438,4118.4614257813,4078.8461914063,4090.8974609375,4060.5129394531,4084.2307128906,4087.1794433594,4062.8205566406,4057.6923828125,4164.1025390625,4081.794921875,4058.9743652344,33025,0.0,0.0,1.0,2.0
14.46875,57,4116.2822265625,4108.8461914063,4094.3588867188,4121.6665039063,4074.2307128906,4089.6154785156,4057.0512695313,4078.8461914063,4082.3076171875,4057.4357910156,4049.4870605469,4166.9228515625,4076.2819824219,4060.5129394531,33025,0.0,0.0,1.0,2.0
14.4765625,57,4119.1025390625,4110.7690429688,4096.794921875,4123.7177734375,4088.205078125,4093.0769042969,4062.4357910156,4083.0769042969,4083.58984375,4057.0512695313,4051.6667480469,4172.3076171875,4077.4357910156,4067.5642089844,33025,0.0,0.0,1.0,2.0
14.484375,57,4119.2309570313,4107.3076171875,4110.6411132813,4124.1025390625,4100.6411132813,4099.615234375,4071.1538085938,4092.0512695313,4088.205078125,4060.1281738281,4058.3332519531,4151.6665039063,4083.8461914063,4078.58984375,33025,0.0,0.0,1.0,2.0
14.4921875,57,4126.0258789063,4109.7436523438,4114.1025390625,4127.4360351563,4097.4360351563,4102.6923828125,4076.5385742188,4108.4614257813,4102.0512695313,4074.2307128906,4077.0512695313,4134.4873046875,4099.4873046875,4094.7436523438,33025,0.0,0.0,1.0,2.0
14.5,58,4128.7177734375,4107.6923828125,4106.1538085938,4128.3334960938,4089.6154785156,4100.0,4074.4870605469,4116.5385742188,4112.8203125,4083.9743652344,4090.7692871094,4135.6411132813,4105.0,4100.0,33025,0.0,0.0,1.0,2.0
14.5078125,58,4120.8974609375,4096.9228515625,4106.6665039063,4121.41015625,4092.6923828125,4103.4614257813,4080.1281738281,4111.6665039063,4117.8203125,4085.5129394531,4083.58984375,4125.2563476563,4097.9487304688,4091.41015625,33025,0.0,0.0,1.0,2.0
14.515625,58,4120.0,4089.6154785156,4113.58984375,4116.6665039063,4091.794921875,4109.2309570313,4089.2307128906,4113.3334960938,4124.7436523438,4089.4870605469,4080.5129394531,4118.3334960938,4100.7690429688,4093.8461914063,33025,0.0,0.0,1.0,2.0
14.5234375,58,4126.9228515625,4090.6411132813,4112.6923828125,4120.384765625,4077.3076171875,4106.1538085938,4083.3332519531,4113.0771484375,4120.0,4087.5642089844,4089.3588867188,4144.615234375,4108.205078125,4110.6411132813,33025,0.0,0.0,1.0,2.0
14.53125,58,4122.1796875,4095.3845214844,4104.615234375,4123.3334960938,4072.1794433594,4105.1284179688,4077.1794433594,4096.41015625,4099.8715820313,4076.6667480469,4084.3588867188,4159.8715820313,4096.794921875,4113.3334960938,33025,0.0,0.0,1.0,2.0
14.5390625,58,4113.7177734375,4094.6154785156,4099.8715820313,4119.615234375,4079.8718261719,4105.384765625,4076.9230957031,4082.9487304688,4087.3076171875,4071.41015625,4070.2563476563,4141.1538085938,4085.6411132813,4095.6411132813,33025,0.0,0.0,1.0,2.0
14.546875,58,4116.41015625,4091.6667480469,4103.0771484375,4119.3588867188,4082.6923828125,4096.0258789063,4070.2563476563,4088.8461914063,4091.0256347656,4074.7436523438,4078.58984375,4140.384765625,4091.6667480469,4088.205078125,33025,0.0,0.0,1.0,2.0
14.5546875,58,4122.5639648438,4092.5642089844,4105.8974609375,4123.0771484375,4078.58984375,4090.2563476563,4067.3076171875,4095.5129394531,4091.794921875,4075.5129394531,4092.1794433594,4158.8461914063,4095.2563476563,4100.6411132813,33025,0.0,0.0,1.0,2.0
14.5625,58,4121.9228515625,4095.2563476563,4098.3334960938,4121.1538085938,4077.3076171875,4093.205078125,4068.8461914063,4090.0,4085.3845214844,4074.3588867188,4083.9743652344,4152.4360351563,4091.6667480469,4107.3076171875,33025,0.0,0.0,1.0,2.0
14.5703125,58,4117.8203125,4100.0,4098.205078125,4118.4614257813,4075.8974609375,4090.5129394531,4065.6411132813,4092.4357910156,4086.2819824219,4075.6411132813,4079.3588867188,4142.3076171875,4091.6667480469,4105.0,33025,0.0,0.0,1.0,2.0
14.578125,58,4119.3588867188,4105.1284179688,4111.6665039063,4121.0258789063,4083.7180175781,4089.3588867188,4066.0256347656,4102.9487304688,4092.8205566406,4076.6667480469,4090.8974609375,4163.3334960938,4092.5642089844,4108.8461914063,33025,0.0,0.0,1.0,2.0
14.5859375,58,4118.8461914063,4103.3334960938,4111.41015625,4118.9741210938,4092.5642089844,4092.3076171875,4069.6154785156,4102.3076171875,4092.5642089844,4077.0512695313,4093.0769042969,4184.615234375,4092.5642089844,4115.6411132813,33025,0.0,0.0,1.0,2.0
14.59375,58,4114.3588867188,4093.3332519531,4096.41015625,4107.1796875,4080.0,4088.9743652344,4067.4357910156,4092.9487304688,4090.3845214844,4073.7180175781,4080.3845214844,4177.0512695313,4092.5642089844,4114.615234375,33025,0.0,0.0,1.0,3.0
14.6015625,58,4111.5385742188,4090.5129394531,4089.8718261719,4104.3588867188,4068.9743652344,4089.2307128906,4066.41015625,4088.7180175781,4090.2563476563,4070.1281738281,4074.1025390625,4155.8974609375,4090.2563476563,4107.5639648438,33025,0.0,0.0,1.0,3.0
14.609375,58,4103.3334960938,4092.5642089844,4094.6154785156,4111.6665039063,4080.3845214844,4092.5642089844,4064.8718261719,4090.0,4087.5642089844,4073.4614257813,4075.5129394531,4141.6665039063,4088.4614257813,4102.6923828125,33025,0.0,0.0,1.0,3.0
14.6171875,58,4097.1796875,4087.0512695313,4095.3845214844,4109.7436523438,4088.9743652344,4090.1281738281,4063.8461914063,4089.2307128906,4092.0512695313,4079.3588867188,4077.1794433594,4138.8461914063,4091.1538085938,4101.6665039063,33025,0.0,0.0,1.0,3.0
14.625,58,4100.6411132813,4084.3588867188,4092.3076171875,4105.6411132813,4084.8718261719,4090.6411132813,4068.4614257813,4094.4870605469,4102.0512695313,4079.4870605469,4077.1794433594,4142.1796875,4092.3076171875,4103.9741210938,33025,0.0,0.0,1.0,3.0
14.6328125,58,4106.0258789063,4088.58984375,4090.1281738281,4105.1284179688,4078.4614257813,4091.1538085938,4067.4357910156,4103.4614257813,4100.2563476563,4077.4357910156,4073.9743652344,4143.205078125,4088.9743652344,4106.6665039063,33025,0.0,0.0,1.0,3.0
14.640625,58,4108.205078125,4089.6154785156,4089.2307128906,4098.58984375,4077.3076171875,4089.7436523438,4067.3076171875,4106.2822265625,4097.6923828125,4081.1538085938,4075.7692871094,4139.615234375,4089.8718261719,4106.1538085938,33025,0.0,0.0,1.0,3.0
14.6484375,58,4107.0512695313,4087.5642089844,4088.3332519531,4095.5129394531,4083.0769042969,4095.0,4075.6411132813,4106.0258789063,4104.7436523438,4087.3076171875,4078.4614257813,4136.5385742188,4093.3332519531,4104.8715820313,33025,0.0,0.0,1.0,3.0
14.65625,58,4105.8974609375,4088.9743652344,4090.5129394531,4103.8461914063,4080.7692871094,4100.1284179688,4078.7180175781,4103.4614257813,4107.1796875,4089.3588867188,4075.6411132813,4141.1538085938,4092.0512695313,4104.615234375,33025,0.0,0.0,1.0,3.0
14.6640625,58,4104.4873046875,4086.9230957031,4095.7692871094,4108.9741210938,4079.2307128906,4097.1796875,4076.0256347656,4100.5126953125,4105.6411132813,4088.58984375,4074.2307128906,4149.615234375,4093.58984375,4105.8974609375,33025,0.0,0.0,1.0,3.0
14.671875,58,4104.3588867188,4088.7180175781,4097.0512695313,4106.5385742188,4089.4870605469,4094.2307128906,4073.8461914063,4103.8461914063,4109.615234375,4090.7692871094,4079.8718261719,4157.0512695313,4102.9487304688,4108.8461914063,33025,0.0,0.0,1.0,3.0
14.6796875,58,4109.2309570313,4099.7436523438,4097.3076171875,4105.6411132813,4087.0512695313,4092.4357910156,4069.7436523438,4107.4360351563,4111.5385742188,4092.3076171875,4087.0512695313,4163.0771484375,4106.9228515625,4110.6411132813,33025,0.0,0.0,1.0,3.0
14.6875,58,4113.205078125,4101.1538085938,4101.6665039063,4107.8203125,4077.3076171875,4090.0,4066.5385742188,4105.0,4107.4360351563,4089.6154785156,4090.6411132813,4153.4614257813,4103.8461914063,4110.2563476563,33025,0.0,0.0,1.0,3.0
14.6953125,58,4111.0258789063,4097.6923828125,4104.8715820313,4110.2563476563,4087.4357910156,4091.5385742188,4067.9487304688,4107.3076171875,4107.8203125,4090.7692871094,4092.0512695313,4133.3334960938,4105.5126953125,4108.4614257813,33025,0.0,0.0,1.0,3.0
14.703125,58,4107.0512695313,4103.4614257813,4099.7436523438,4109.4873046875,4097.0512695313,4095.0,4067.8205566406,4108.0771484375,4111.6665039063,4093.0769042969,4089.8718261719,4127.0512695313,4107.3076171875,4107.1796875,33025,0.0,0.0,1.0,3.0
14.7109375,58,4108.8461914063,4108.9741210938,4094.1025390625,4106.0258789063,4090.6411132813,4094.7436523438,4066.794921875,4095.8974609375,4104.7436523438,4085.7692871094,4081.6667480469,4126.41015625,4102.0512695313,4107.1796875,33025,0.0,0.0,1.0,3.0
14.71875,58,4112.8203125,4104.8715820313,4098.0771484375,4106.0258789063,4087.5642089844,4091.6667480469,4065.0,4087.4357910156,4090.6411132813,4075.7692871094,4073.205078125,4120.384765625,4094.2307128906,4106.6665039063,33025,0.0,0.0,1.0,3.0
14.7265625,58,4110.5126953125,4101.794921875,4097.9487304688,4106.2822265625,4087.5642089844,4091.0256347656,4060.6411132813,4093.205078125,4088.9743652344,4074.1025390625,4073.3332519531,4119.615234375,4092.5642089844,4106.0258789063,33025,0.0,0.0,1.0,3.0
14.734375,58,4107.4360351563,4099.7436523438,4094.3588867188,4101.1538085938,4083.3332519531,4092.5642089844,4057.4357910156,4092.5642089844,4092.8205566406,4075.7692871094,4078.0769042969,4121.794921875,4094.4870605469,4106.41015625,33025,0.0,0.0,1.0,3.0
14.7421875,58,4103.4614257813,4093.58984375,4092.9487304688,4094.1025390625,4079.2307128906,4089.2307128906,4058.4614257813,4080.7692871094,4087.8205566406,4074.2307128906,4071.9230957031,4119.2309570313,4092.6923828125,4099.3588867188,33025,0.0,0.0,1.0,3.0
14.75,59,4099.7436523438,4090.5129394531,4091.2819824219,4091.6667480469,4077.1794433594,4085.8974609375,4059.8718261719,4082.1794433594,4087.4357910156,4074.3588867188,4058.58984375,4119.3588867188,4087.5642089844,4088.8461914063,33025,0.0,0.0,1.0,3.0
14.7578125,59,4102.3076171875,4091.41015625,4094.7436523438,4095.1281738281,4078.205078125,4089.1025390625,4058.205078125,4087.9487304688,4091.41015625,4073.9743652344,4058.205078125,4122.0512695313,4089.1025390625,4093.8461914063,33025,0.0,0.0,1.0,3.0
14.765625,59,4102.4360351563,4092.5642089844,4097.5639648438,4097.4360351563,4077.9487304688,4084.8718261719,4051.41015625,4078.205078125,4083.58984375,4073.205078125,4074.3588867188,4122.1796875,4096.794921875,4105.2563476563,33025,0.0,0.0,1.0,3.0
14.7734375,59,4101.0258789063,4091.2819824219,4096.2822265625,4094.8718261719,4072.8205566406,4072.5642089844,4044.8718261719,4075.5129394531,4081.794921875,4080.7692871094,4090.5129394531,4124.3588867188,4107.6923828125,4106.5385742188,33025,0.0,0.0,1.0,3.0
14.78125,59,4101.9228515625,4086.5385742188,4093.205078125,4091.1538085938,4072.6923828125,4075.1281738281,4048.58984375,4089.3588867188,4096.794921875,4089.4870605469,4100.5126953125,4128.9741210938,4118.4614257813,4106.0258789063,33025,0.0,0.0,1.0,3.0
14.7890625,59,4101.2822265625,4082.5642089844,4091.6667480469,4086.5385742188,4078.3332519531,4089.2307128906,4060.0,4096.5385742188,4106.9228515625,4096.794921875,4113.9741210938,4136.1538085938,4123.205078125,4113.4614257813,33025,0.0,0.0,1.0,3.0
14.796875,59,4100.384765625,4079.3588867188,4091.794921875,4078.9743652344,4078.9743652344,4093.7180175781,4066.6667480469,4098.4614257813,4109.1025390625,4104.3588867188,4129.615234375,4141.794921875,4126.9228515625,4119.4873046875,33025,0.0,0.0,1.0,3.0
14.8046875,59,4101.794921875,4076.0256347656,4088.7180175781,4072.0512695313,4079.6154785156,4090.6411132813,4065.7692871094,4112.5639648438,4118.3334960938,4112.5639648438,4148.58984375,4147.5639648438,4140.5126953125,4124.2309570313,33025,0.0,0.0,1.0,3.0
14.8125,59,4110.2563476563,4081.41015625,4091.9230957031,4076.6667480469,4086.41015625,4091.41015625,4070.1281738281,4125.5126953125,4135.6411132813,4128.205078125,4174.3588867188,4163.205078125,4161.1538085938,4139.615234375,33025,0.0,0.0,1.0,3.0
14.8203125,59,4113.0771484375,4087.5642089844,4099.3588867188,4082.0512695313,4092.8205566406,4093.205078125,4074.6154785156,4127.5639648438,4141.41015625,4138.7177734375,4190.0,4176.794921875,4173.3334960938,4151.5385742188,33025,0.0,0.0,1.0,3.0
14.828125,59,4103.8461914063,4079.8718261719,4093.3332519531,4072.6923828125,4091.5385742188,4092.0512695313,4067.0512695313,4121.9228515625,4131.2822265625,4131.41015625,4191.41015625,4173.8461914063,4168.9741210938,4145.7690429688,33025,0.0,0.0,1.0,3.0
14.8359375,59,4100.384765625,4073.3332519531,4085.1281738281,4065.1281738281,4089.6154785156,4096.5385742188,4065.1281738281,4118.8461914063,4124.2309570313,4122.5639648438,4190.1284179688,4170.7690429688,4159.8715820313,4137.4360351563,33025,0.0,0.0,1.0,3.0
14.84375,59,4103.205078125,4076.0256347656,4085.6411132813,4070.5129394531,4093.58984375,4105.0,4075.2563476563,4120.7690429688,4127.6923828125,4124.8715820313,4183.3334960938,4174.2309570313,4155.7690429688,4138.205078125,33025,0.0,0.0,1.0,4.0
14.8515625,59,4103.205078125,4077.5642089844,4084.3588867188,4075.6411132813,4096.1538085938,4106.794921875,4081.0256347656,4120.1284179688,4132.3076171875,4126.41015625,4177.1796875,4168.4614257813,4157.5639648438,4137.4360351563,33025,0.0,0.0,1.0,4.0
14.859375,59,4102.4360351563,4077.9487304688,4083.3332519531,4075.2563476563,4093.8461914063,4106.2822265625,4083.4614257813,4129.1025390625,4137.3076171875,4128.4614257813,4182.9487304688,4155.6411132813,4162.0512695313,4137.0512695313,33025,0.0,0.0,1.0,4.0
14.8671875,59,4102.4360351563,4077.4357910156,4086.5385742188,4075.7692871094,4091.1538085938,4106.0258789063,4088.3332519531,4139.1025390625,4144.8715820313,4131.41015625,4184.7436523438,4155.2563476563,4166.0258789063,4139.2309570313,33025,0.0,0.0,1.0,4.0
14.875,59,4104.2309570313,4075.7692871094,4082.5642089844,4070.6411132813,4091.2819824219,4097.0512695313,4083.205078125,4128.3334960938,4136.794921875,4125.8974609375,4169.4873046875,4159.1025390625,4159.615234375,4133.0771484375,33025,0.0,0.0,1.0,4.0
14.8828125,59,4103.8461914063,4083.0769042969,4075.7692871094,4060.5129394531,4088.58984375,4089.8718261719,4078.205078125,4117.4360351563,4125.1284179688,4120.5126953125,4157.0512695313,4149.4873046875,4146.2822265625,4123.58984375,33025,0.0,0.0,1.0,4.0
14.890625,59,4098.3334960938,4083.8461914063,4075.7692871094,4057.0512695313,4088.8461914063,4094.6154785156,4081.41015625,4121.794921875,4124.4873046875,4114.1025390625,4154.7436523438,4138.0771484375,4144.1025390625,4120.6411132813,33025,0.0,0.0,1.0,4.0
14.8984375,59,4097.9487304688,4078.0769042969,4079.3588867188,4061.0256347656,4093.4614257813,4094.8718261719,4078.9743652344,4125.384765625,4124.1025390625,4109.8715820313,4155.1284179688,4146.9228515625,4150.6411132813,4124.2309570313,33025,0.0,0.0,1.0,4.0
14.90625,59,4097.9487304688,4078.0769042969,4079.3588867188,4061.0256347656,4093.4614257813,4094.8718261719,4078.9743652344,4125.384765625,4124.1025390625,4109.8715820313,4155.1284179688,4146.9228515625,4150.6411132813,4124.2309570313,33025,0.0,0.0,1.0,4.0
14.9140625,59,4100.7690429688,4087.1794433594,4081.2819824219,4063.0769042969,4082.8205566406,4087.9487304688,4074.2307128906,4123.4614257813,4128.0771484375,4115.5126953125,4153.4614257813,4158.7177734375,4153.3334960938,4127.9487304688,33025,0.0,0.0,1.0,4.0
14.921875,59,4099.615234375,4088.7180175781,4082.3076171875,4058.58984375,4073.8461914063,4088.9743652344,4077.0512695313,4125.8974609375,4138.7177734375,4119.7436523438,4154.3588867188,4149.4873046875,4153.7177734375,4128.0771484375,33025,0.0,0.0,1.0,4.0
14.9296875,59,4097.0512695313,4082.1794433594,4077.3076171875,4060.3845214844,4089.2307128906,4094.3588867188,4078.8461914063,4124.4873046875,4139.3588867188,4114.8715820313,4160.8974609375,4139.4873046875,4149.3588867188,4128.4614257813,33025,0.0,0.0,1.0,4.0
14.9375,59,4096.9228515625,4089.1025390625,4074.2307128906,4067.4357910156,4101.2822265625,4093.9743652344,4072.4357910156,4115.6411132813,4131.0258789063,4110.6411132813,4163.58984375,4141.9228515625,4143.4614257813,4126.794921875,33025,0.0,0.0,1.0,4.0
14.9453125,59,4096.41015625,4087.3076171875,4083.3332519531,4065.1281738281,4091.5385742188,4091.9230957031,4065.6411132813,4112.3076171875,4128.7177734375,4116.0258789063,4162.4360351563,4140.384765625,4147.9487304688,4120.6411132813,33025,0.0,0.0,1.0,4.0
14.953125,59,4097.1796875,4075.7692871094,4091.9230957031,4063.0769042969,4087.0512695313,4091.5385742188,4064.3588867188,4118.9741210938,4124.7436523438,4121.1538085938,4169.2309570313,4145.0,4152.6923828125,4126.0258789063,33025,0.0,0.0,1.0,4.0
14.9609375,59,4104.3588867188,4082.0512695313,4087.5642089844,4067.1794433594,4095.1281738281,4091.6667480469,4066.5385742188,4120.7690429688,4116.1538085938,4114.7436523438,4171.2822265625,4155.8974609375,4145.1284179688,4138.8461914063,33025,0.0,0.0,1.0,4.0
14.96875,59,4100.1284179688,4084.6154785156,4075.6411132813,4063.7180175781,4096.0258789063,4091.794921875,4066.41015625,4109.8715820313,4113.8461914063,4105.1284179688,4153.3334960938,4146.794921875,4137.6923828125,4129.1025390625,33025,0.0,0.0,1.0,4.0
14.9765625,59,4083.9743652344,4073.8461914063,4069.1025390625,4057.9487304688,4090.1281738281,4090.8974609375,4063.4614257813,4105.0,4112.4360351563,4106.1538085938,4138.3334960938,4130.0,4134.8715820313,4107.6923828125,33025,0.0,0.0,1.0,4.0
14.984375,59,4079.7436523438,4076.0256347656,4071.5385742188,4060.3845214844,4088.9743652344,4091.2819824219,4067.6923828125,4106.0258789063,4111.1538085938,4107.5639648438,4134.1025390625,4121.2822265625,4125.8974609375,4103.3334960938,33025,0.0,0.0,1.0,4.0
14.9921875,59,4081.0256347656,4077.6923828125,4070.1281738281,4058.7180175781,4085.3845214844,4091.794921875,4076.6667480469,4103.0771484375,4115.2563476563,4102.6923828125,4127.1796875,4102.3076171875,4118.0771484375,4106.1538085938,33025,0.0,0.0,1.0,4.0
15.0,60,4079.8718261719,4076.1538085938,4070.3845214844,4058.8461914063,4076.0256347656,4091.9230957031,4081.6667480469,4108.0771484375,4123.8461914063,4106.794921875,4132.1796875,4095.3845214844,4127.0512695313,4107.3076171875,33025,0.0,0.0,1.0,4.0
15.0078125,60,4080.1281738281,4082.9487304688,4073.3332519531,4064.2307128906,4078.58984375,4092.1794433594,4080.5129394531,4111.794921875,4125.6411132813,4111.1538085938,4143.0771484375,4112.5639648438,4136.0258789063,4109.3588867188,33025,0.0,0.0,1.0,4.0
15.015625,60,4088.205078125,4084.1025390625,4072.6923828125,4060.7692871094,4089.2307128906,4089.8718261719,4077.8205566406,4107.5639648438,4120.7690429688,4108.8461914063,4141.6665039063,4117.6923828125,4130.7690429688,4107.3076171875,33025,0.0,0.0,1.0,4.0
15.0234375,60,4093.3332519531,4080.0,4073.9743652344,4057.8205566406,4089.1025390625,4085.0,4075.5129394531,4103.0771484375,4115.0,4102.8203125,4137.0512695313,4108.4614257813,4123.9741210938,4105.5126953125,33025,0.0,0.0,1.0,4.0
15.03125,60,4087.8205566406,4081.41015625,4074.2307128906,4063.58984375,4088.3332519531,4082.5642089844,4075.0,4098.7177734375,4108.7177734375,4095.5129394531,4135.1284179688,4108.4614257813,4124.2309570313,4108.9741210938,33025,0.0,0.0,1.0,4.0
15.0390625,60,4084.4870605469,4080.8974609375,4070.8974609375,4063.8461914063,4091.0256347656,4086.0256347656,4077.6923828125,4097.6923828125,4105.8974609375,4095.6411132813,4128.0771484375,4109.3588867188,4124.2309570313,4106.1538085938,33025,0.0,0.0,1.0,4.0
15.046875,60,4086.5385742188,4076.2819824219,4071.41015625,4058.0769042969,4084.2307128906,4090.3845214844,4081.0256347656,4104.3588867188,4112.9487304688,4102.5639648438,4123.205078125,4105.7690429688,4123.4614257813,4102.3076171875,33025,0.0,0.0,1.0,4.0
15.0546875,60,4091.41015625,4077.4357910156,4071.9230957031,4059.3588867188,4082.3076171875,4092.3076171875,4087.5642089844,4113.3334960938,4124.1025390625,4108.3334960938,4127.3076171875,4110.384765625,4127.4360351563,4112.5639648438,33025,0.0,0.0,1.0,4.0
15.0625,60,4092.6923828125,4077.1794433594,4065.7692871094,4062.9487304688,4086.794921875,4093.58984375,4095.3845214844,4113.0771484375,4123.58984375,4105.0,4125.5126953125,4110.0,4123.9741210938,4114.4873046875,33025,0.0,0.0,1.0,4.0
15.0703125,60,4085.3845214844,4074.4870605469,4059.4870605469,4058.205078125,4079.1025390625,4090.8974609375,4092.3076171875,4106.1538085938,4112.0512695313,4094.1025390625,4117.6923828125,4103.3334960938,4112.3076171875,4096.5385742188,33025,0.0,0.0,1.0,4.0
15.078125,60,4080.0,4076.41015625,4061.1538085938,4055.0,4074.3588867188,4083.4614257813,4078.4614257813,4099.1025390625,4104.7436523438,4088.205078125,4116.2822265625,4104.8715820313,4109.2309570313,4093.58984375,33025,0.0,0.0,1.0,4.0
15.0859375,60,4084.1025390625,4078.7180175781,4068.7180175781,4058.9743652344,4079.3588867188,4082.8205566406,4075.0,4093.8461914063,4104.615234375,4093.58984375,4120.2563476563,4107.1796875,4115.5126953125,4105.384765625,33025,0.0,0.0,1.0,4.0
15.09375,60,4088.205078125,4081.5385742188,4074.6154785156,4062.0512695313,4085.0,4090.2563476563,4081.6667480469,4096.2822265625,4112.3076171875,4097.5639648438,4124.7436523438,4109.1025390625,4123.205078125,4103.8461914063,33025,0.0,0.0,1.0,5.0
15.1015625,60,4084.7436523438,4079.2307128906,4072.1794433594,4059.2307128906,4085.0,4091.5385742188,4082.1794433594,4103.58984375,4115.7690429688,4091.1538085938,4117.3076171875,4109.1025390625,4118.58984375,4098.58984375,33025,0.0,0.0,1.0,5.0
15.109375,60,4084.2307128906,4076.6667480469,4068.9743652344,4059.1025390625,4083.205078125,4088.8461914063,4083.4614257813,4107.9487304688,4113.4614257813,4087.5642089844,4110.8974609375,4106.9228515625,4110.8974609375,4104.8715820313,33025,0.0,0.0,1.0,5.0
15.1171875,60,4090.6411132813,4079.8718261719,4073.205078125,4062.3076171875,4089.7436523438,4094.3588867188,4092.6923828125,4104.7436523438,4117.3076171875,4094.6154785156,4122.1796875,4110.0,4115.7690429688,4108.7177734375,33025,0.0,0.0,1.0,5.0
15.125,60,4090.6411132813,4081.0256347656,4074.2307128906,4059.6154785156,4094.6154785156,4099.8715820313,4093.58984375,4101.41015625,4120.384765625,4099.4873046875,4133.0771484375,4119.7436523438,4123.9741210938,4107.8203125,33025,0.0,0.0,1.0,5.0
15.1328125,60,4082.0512695313,4076.794921875,4066.41015625,4057.4357910156,4085.3845214844,4091.9230957031,4081.41015625,4102.5639648438,4117.5639648438,4098.3334960938,4131.0258789063,4127.0512695313,4124.8715820313,4113.0771484375,33025,0.0,0.0,1.0,5.0
15.140625,60,4082.3076171875,4073.7180175781,4064.8718261719,4060.6411132813,4078.9743652344,4087.5642089844,4079.1025390625,4104.2309570313,4120.384765625,4099.8715820313,4126.0258789063,4126.41015625,4122.0512695313,4120.0,33025,0.0,0.0,1.0,5.0
15.1484375,60,4089.7436523438,4075.1281738281,4071.9230957031,4061.9230957031,4090.6411132813,4098.8461914063,4092.4357910156,4108.3334960938,4127.4360351563,4100.384765625,4126.2822265625,4122.3076171875,4122.0512695313,4124.2309570313,33025,0.0,0.0,1.0,5.0
15.15625,60,4094.3588867188,4082.6923828125,4074.3588867188,4064.3588867188,4098.3334960938,4103.0771484375,4095.7692871094,4106.5385742188,4120.1284179688,4092.6923828125,4124.1025390625,4124.2309570313,4122.0512695313,4124.615234375,33025,0.0,0.0,1.0,5.0
15.1640625,60,4097.6923828125,4091.9230957031,4076.41015625,4072.1794433594,4093.58984375,4092.8205566406,4083.9743652344,4099.2309570313,4113.58984375,4090.2563476563,4127.3076171875,4135.0,4122.9487304688,4122.9487304688,33025,0.0,0.0,1.0,5.0
15.171875,60,4096.794921875,4089.4870605469,4081.794921875,4074.7436523438,4091.5385742188,4092.3076171875,4081.5385742188,4099.2309570313,4119.1025390625,4098.8461914063,4138.0771484375,4144.3588867188,4125.5126953125,4125.0,33025,0.0,0.0,1.0,5.0
15.1796875,60,4094.2307128906,4080.8974609375,4081.5385742188,4070.7692871094,4094.6154785156,4101.6665039063,4094.3588867188,4108.58984375,4119.615234375,4099.1025390625,4135.384765625,4137.6923828125,4125.6411132813,4127.6923828125,33025,0.0,0.0,1.0,5.0
15.1875,60,4091.2819824219,4082.8205566406,4074.8718261719,4066.5385742188,4090.2563476563,4100.5126953125,4097.8203125,4110.6411132813,4114.7436523438,4092.3076171875,4125.0,4125.0,4122.8203125,4125.384765625,33025,0.0,0.0,1.0,5.0
15.1953125,60,4087.5642089844,4080.5129394531,4070.5129394531,4058.205078125,4081.6667480469,4090.2563476563,4083.9743652344,4100.1284179688,4112.1796875,4091.0256347656,4120.7690429688,4129.1025390625,4119.4873046875,4120.0,33025,0.0,0.0,1.0,5.0
15.203125,60,4091.6667480469,4074.3588867188,4071.794921875,4059.4870605469,4084.8718261719,4089.6154785156,4080.5129394531,4096.1538085938,4114.615234375,4092.0512695313,4122.0512695313,4136.0258789063,4119.4873046875,4123.4614257813,33025,0.0,0.0,1.0,5.0
15.2109375,60,4098.9741210938,4081.5385742188,4075.8974609375,4072.6923828125,4093.4614257813,4100.1284179688,4096.9228515625,4110.1284179688,4123.58984375,4098.4614257813,4128.8461914063,4123.3334960938,4121.5385742188,4134.2309570313,33025,0.0,0.0,1.0,5.0
15.21875,60,4099.1025390625,4087.8205566406,4078.58984375,4076.5385742188,4092.6923828125,4107.9487304688,4106.794921875,4120.7690429688,4130.1284179688,4104.8715820313,4135.384765625,4111.9228515625,4125.1284179688,4137.0512695313,33025,0.0,0.0,1.0,5.0
15.2265625,60,4096.5385742188,4087.0512695313,4079.1025390625,4073.7180175781,4091.2819824219,4103.3334960938,4103.9741210938,4115.1284179688,4127.5639648438,4101.2822265625,4132.9487304688,4118.7177734375,4129.8715820313,4133.7177734375,33025,0.0,0.0,1.0,5.0
15.234375,60,4100.5126953125,4087.1794433594,4081.9230957031,4073.9743652344,4093.205078125,4096.5385742188,4101.5385742188,4110.0,4124.2309570313,4093.58984375,4127.9487304688,4124.3588867188,4129.7436523438,4135.8974609375,33025,0.0,0.0,1.0,5.0
15.2421875,60,4103.4614257813,4083.7180175781,4083.58984375,4070.7692871094,4091.0256347656,4095.1281738281,4096.41015625,4108.58984375,4120.7690429688,4091.5385742188,4125.5126953125,4121.41015625,4123.3334960938,4139.1025390625,33025,0.0,0.0,1.0,5.0
15.25,61,4097.3076171875,4081.1538085938,4077.9487304688,4071.0256347656,4092.0512695313,4097.3076171875,4090.5129394531,4107.3076171875,4116.0258789063,4093.0769042969,4127.6923828125,4119.7436523438,4122.5639648438,4137.3076171875,33025,0.0,0.0,1.0,5.0
15.2578125,61,4096.1538085938,4089.1025390625,4077.6923828125,4082.0512695313,4096.41015625,4100.1284179688,4098.58984375,4116.794921875,4122.6923828125,4096.2822265625,4137.3076171875,4125.384765625,4132.1796875,4139.3588867188,33025,0.0,0.0,1.0,5.0
15.265625,61,4100.5126953125,4095.3845214844,4080.0,4084.4870605469,4097.0512695313,4103.7177734375,4104.2309570313,4122.3076171875,4129.3588867188,4098.0771484375,4137.8203125,4123.58984375,4134.2309570313,4137.6923828125,33025,0.0,0.0,1.0,5.0
15.2734375,61,4099.3588867188,4089.3588867188,4078.3332519531,4076.41015625,4092.4357910156,4104.3588867188,4098.205078125,4110.6411132813,4118.3334960938,4091.0256347656,4121.6665039063,4107.0512695313,4123.58984375,4126.41015625,33025,0.0,0.0,1.0,5.0
15.28125,61,4096.6665039063,4084.7436523438,4077.0512695313,4077.0512695313,4084.7436523438,4097.8203125,4094.1025390625,4104.3588867188,4111.41015625,4086.794921875,4117.1796875,4109.7436523438,4120.384765625,4127.5639648438,33025,0.0,0.0,1.0,5.0
15.2890625,61,4095.7692871094,4082.8205566406,4074.6154785156,4081.1538085938,4092.3076171875,4098.7177734375,4095.2563476563,4108.8461914063,4119.3588867188,4092.6923828125,4126.1538085938,4128.58984375,4125.384765625,4135.384765625,33025,0.0,0.0,1.0,5.0
15.296875,61,4092.9487304688,4081.794921875,4077.9487304688,4077.3076171875,4107.1796875,4103.4614257813,4095.8974609375,4101.794921875,4115.5126953125,4094.2307128906,4125.0,4120.7690429688,4123.58984375,4127.6923828125,33025,0.0,0.0,1.0,5.0
15.3046875,61,4087.1794433594,4082.6923828125,4080.7692871094,4072.8205566406,4096.6665039063,4096.41015625,4089.8718261719,4095.8974609375,4103.8461914063,4090.1281738281,4120.1284179688,4100.5126953125,4119.3588867188,4116.6665039063,33025,0.0,0.0,1.0,5.0
15.3125,61,4086.0256347656,4079.1025390625,4070.8974609375,4072.5642089844,4075.8974609375,4088.9743652344,4085.6411132813,4101.794921875,4108.7177734375,4089.3588867188,4120.1284179688,4102.0512695313,4119.2309570313,4121.9228515625,33025,0.0,0.0,1.0,5.0
15.3203125,61,4093.7180175781,4079.6154785156,4070.6411132813,4075.1281738281,4083.7180175781,4092.3076171875,4088.9743652344,4106.1538085938,4119.615234375,4092.9487304688,4121.9228515625,4114.4873046875,4125.1284179688,4132.4360351563,33025,0.0,0.0,1.0,5.0
15.328125,61,4098.0771484375,4087.3076171875,4084.8718261719,4077.3076171875,4097.9487304688,4095.5129394531,4092.9487304688,4110.6411132813,4123.8461914063,4097.1796875,4124.2309570313,4120.0,4131.0258789063,4137.5639648438,33025,0.0,0.0,1.0,5.0
15.3359375,61,4098.8461914063,4091.1538085938,4089.4870605469,4080.1281738281,4093.9743652344,4096.2822265625,4092.0512695313,4115.1284179688,4125.8974609375,4098.0771484375,4128.0771484375,4122.6923828125,4132.5639648438,4140.1284179688,33025,0.0,0.0,1.0,5.0
15.34375,61,4101.1538085938,4092.1794433594,4088.4614257813,4088.4614257813,4091.5385742188,4098.205078125,4091.41015625,4108.9741210938,4118.8461914063,4092.6923828125,4129.7436523438,4124.615234375,4131.1538085938,4140.2563476563,33025,0.0,0.0,1.0,6.0
15.3515625,61,4100.7690429688,4100.0,4091.41015625,4092.8205566406,4094.8718261719,4095.0,4091.794921875,4106.41015625,4112.5639648438,4089.3588867188,4126.1538085938,4121.1538085938,4129.2309570313,4142.9487304688,33025,0.0,0.0,1.0,6.0
15.359375,61,4101.0258789063,4099.3588867188,4091.6667480469,4087.6923828125,4093.8461914063,4092.3076171875,4091.0256347656,4115.5126953125,4119.3588867188,4094.7436523438,4124.7436523438,4122.4360351563,4126.5385742188,4143.205078125,33025,0.0,0.0,1.0,6.0
15.3671875,61,4095.7692871094,4082.6923828125,4088.7180175781,4083.9743652344,4090.7692871094,4093.3332519531,4088.4614257813,4115.8974609375,4123.7177734375,4098.205078125,4128.4614257813,4140.5126953125,4125.5126953125,4138.9741210938,33025,0.0,0.0,1.0,6.0
15.375,61,4088.7180175781,4078.9743652344,4082.9487304688,4085.8974609375,4088.8461914063,4092.8205566406,4081.794921875,4105.0,4116.2822265625,4093.4614257813,4127.1796875,4142.6923828125,4126.0258789063,4137.9487304688,33025,0.0,0.0,1.0,6.0
15.3828125,61,4092.9487304688,4090.1281738281,4076.9230957031,4087.4357910156,4090.1281738281,4093.205078125,4081.41015625,4101.9228515625,4108.0771484375,4088.205078125,4119.2309570313,4113.0771484375,4120.1284179688,4136.41015625,33025,0.0,0.0,1.0,6.0
15.390625,61,4099.8715820313,4093.58984375,4082.6923828125,4089.6154785156,4093.58984375,4093.3332519531,4085.7692871094,4107.6923828125,4106.9228515625,4088.205078125,4118.8461914063,4105.7690429688,4115.8974609375,4131.1538085938,33025,0.0,0.0,1.0,6.0
15.3984375,61,4099.4873046875,4091.5385742188,4093.9743652344,4092.3076171875,4092.1794433594,4090.5129394531,4083.7180175781,4110.384765625,4114.615234375,4091.1538085938,4124.7436523438,4125.2563476563,4119.615234375,4126.6665039063,33025,0.0,0.0,1.0,6.0
15.40625,61,4096.6665039063,4091.6667480469,4092.5642089844,4089.2307128906,4088.4614257813,4090.5129394531,4083.3332519531,4108.8461914063,4121.9228515625,4093.0769042969,4124.2309570313,4129.4873046875,4124.1025390625,4125.8974609375,33025,0.0,0.0,1.0,6.0
15.4140625,61,4101.0258789063,4093.3332519531,4085.6411132813,4088.9743652344,4092.3076171875,4096.2822265625,4092.0512695313,4107.4360351563,4116.0258789063,4092.6923828125,4122.9487304688,4124.615234375,4124.2309570313,4132.9487304688,33025,0.0,0.0,1.0,6.0
15.421875,61,4098.9741210938,4090.1281738281,4082.1794433594,4090.8974609375,4092.6923828125,4096.9228515625,4094.6154785156,4102.9487304688,4103.9741210938,4085.6411132813,4119.4873046875,4115.384765625,4116.41015625,4137.3076171875,33025,0.0,0.0,1.0,6.0
15.4296875,61,4085.8974609375,4081.9230957031,4075.8974609375,4081.6667480469,4085.0,4090.8974609375,4086.9230957031,4095.1281738281,4096.1538085938,4076.5385742188,4108.0771484375,4097.6923828125,4107.1796875,4120.8974609375,33025,0.0,0.0,1.0,6.0
15.4375,61,4085.8974609375,4078.4614257813,4076.0256347656,4072.8205566406,4081.9230957031,4089.2307128906,4083.3332519531,4091.5385742188,4094.6154785156,4074.8718261719,4103.8461914063,4096.0258789063,4104.1025390625,4106.6665039063,33025,0.0,0.0,1.0,6.0
15.4453125,61,4096.5385742188,4086.6667480469,4083.9743652344,4080.6411132813,4086.9230957031,4091.2819824219,4083.9743652344,4092.1794433594,4091.9230957031,4072.6923828125,4104.3588867188,4108.7177734375,4104.8715820313,4117.0512695313,33025,0.0,0.0,1.0,6.0
15.453125,61,4098.58984375,4094.1025390625,4084.7436523438,4088.3332519531,4090.8974609375,4090.8974609375,4082.4357910156,4091.1538085938,4086.794921875,4069.7436523438,4098.8461914063,4107.9487304688,4102.8203125,4127.0512695313,33025,0.0,0.0,1.0,6.0
15.4609375,61,4089.8718261719,4086.794921875,4084.3588867188,4080.5129394531,4091.0256347656,4091.41015625,4083.58984375,4097.1796875,4094.1025390625,4073.8461914063,4098.58984375,4103.7177734375,4103.0771484375,4121.9228515625,33025,0.0,0.0,1.0,6.0
15.46875,61,4085.7692871094,4080.3845214844,4083.205078125,4079.7436523438,4090.3845214844,4092.4357910156,4086.0256347656,4106.5385742188,4109.2309570313,4078.7180175781,4105.5126953125,4107.3076171875,4107.6923828125,4118.8461914063,33025,0.0,0.0,1.0,6.0
15.4765625,61,4094.7436523438,4086.5385742188,4081.2819824219,4093.58984375,4091.9230957031,4089.7436523438,4083.4614257813,4103.8461914063,4112.1796875,4080.8974609375,4112.0512695313,4102.0512695313,4109.615234375,4124.3588867188,33025,0.0,0.0,1.0,6.0
15.484375,61,4101.6665039063,4090.0,4088.3332519531,4093.3332519531,4092.9487304688,4090.8974609375,4085.3845214844,4100.7690429688,4112.9487304688,4086.6667480469,4120.0,4111.0258789063,4115.8974609375,4132.8203125,33025,0.0,0.0,1.0,6.0
15.4921875,61,4102.0512695313,4091.9230957031,4097.3076171875,4084.3588867188,4090.3845214844,4094.4870605469,4093.8461914063,4114.4873046875,4124.2309570313,4093.58984375,4126.5385742188,4140.0,4128.3334960938,4142.9487304688,33025,0.0,0.0,1.0,6.0
15.5,62,4105.0,4103.9741210938,4094.1025390625,4097.6923828125,4091.41015625,4092.6923828125,4091.794921875,4128.3334960938,4130.8974609375,4091.794921875,4127.8203125,4146.5385742188,4133.0771484375,4142.8203125,33025,0.0,0.0,1.0,6.0
15.5078125,62,4101.2822265625,4104.615234375,4090.2563476563,4112.9487304688,4092.9487304688,4088.9743652344,4081.0256347656,4117.6923828125,4120.1284179688,4082.5642089844,4121.5385742188,4126.6665039063,4123.8461914063,4129.4873046875,33025,0.0,0.0,1.0,6.0
15.515625,62,4091.6667480469,4082.3076171875,4094.1025390625,4101.41015625,4090.1281738281,4089.7436523438,4080.5129394531,4098.7177734375,4104.2309570313,4070.5129394531,4107.0512695313,4112.9487304688,4109.7436523438,4118.0771484375,33025,0.0,0.0,1.0,6.0
15.5234375,62,4093.205078125,4077.6923828125,4092.4357910156,4085.1281738281,4092.0512695313,4091.6667480469,4085.8974609375,4099.3588867188,4104.1025390625,4067.1794433594,4102.9487304688,4112.1796875,4105.2563476563,4121.1538085938,33025,0.0,0.0,1.0,6.0
15.53125,62,4099.4873046875,4092.1794433594,4089.7436523438,4087.8205566406,4095.5129394531,4092.5642089844,4087.4357910156,4109.1025390625,4111.9228515625,4068.9743652344,4108.58984375,4112.1796875,4111.6665039063,4130.5126953125,33025,0.0,0.0,1.0,6.0
15.5390625,62,4095.7692871094,4092.1794433594,4094.6154785156,4098.7177734375,4089.7436523438,4093.3332519531,4088.3332519531,4101.5385742188,4103.0771484375,4060.1281738281,4096.9228515625,4105.384765625,4108.3334960938,4122.3076171875,33025,0.0,0.0,1.0,6.0
15.546875,62,4094.6154785156,4093.9743652344,4103.0771484375,4111.0258789063,4092.8205566406,4093.4614257813,4087.5642089844,4090.8974609375,4092.0512695313,4055.0,4086.41015625,4099.3588867188,4098.9741210938,4110.1284179688,33025,0.0,0.0,1.0,6.0
15.5546875,62,4104.7436523438,4110.7690429688,4118.58984375,4124.3588867188,4106.794921875,4093.9743652344,4086.6667480469,4094.1025390625,4097.3076171875,4058.9743652344,4094.2307128906,4104.3588867188,4103.3334960938,4115.8974609375,33025,0.0,0.0,1.0,6.0
15.5625,62,4108.58984375,4116.1538085938,4135.8974609375,4128.7177734375,4104.8715820313,4091.794921875,4082.9487304688,4096.1538085938,4099.4873046875,4057.1794433594,4091.6667480469,4106.9228515625,4108.4614257813,4127.0512695313,33025,0.0,0.0,1.0,6.0
15.5703125,62,4107.4360351563,4109.7436523438,4134.3588867188,4128.3334960938,4097.5639648438,4087.8205566406,4070.8974609375,4090.2563476563,4094.3588867188,4051.794921875,4076.0256347656,4106.6665039063,4097.9487304688,4127.5639648438,33025,0.0,0.0,1.0,6.0
15.578125,62,4110.0,4116.794921875,4128.3334960938,4136.5385742188,4094.3588867188,4085.6411132813,4063.8461914063,4082.6923828125,4090.7692871094,4048.58984375,4063.7180175781,4107.4360351563,4082.5642089844,4115.1284179688,33025,0.0,0.0,1.0,6.0
15.5859375,62,4105.0,4127.8203125,4133.8461914063,4148.0771484375,4090.7692871094,4087.5642089844,4069.1025390625,4075.2563476563,4083.58984375,4041.2819824219,4047.3076171875,4094.1025390625,4074.3588867188,4098.3334960938,33025,0.0,0.0,1.0,6.0
15.59375,62,4101.6665039063,4129.7436523438,4140.7690429688,4155.2563476563,4091.794921875,4089.8718261719,4075.5129394531,4077.3076171875,4078.7180175781,4034.2307128906,4032.6923828125,4082.3076171875,4071.6667480469,4094.6154785156,33025,0.0,0.0,1.0,7.0
15.6015625,62,4110.1284179688,4132.0512695313,4146.0258789063,4158.58984375,4092.5642089844,4090.7692871094,4078.9743652344,4089.6154785156,4082.5642089844,4036.6667480469,4032.9487304688,4089.7436523438,4074.7436523438,4107.4360351563,33025,0.0,0.0,1.0,7.0
15.609375,62,4114.8715820313,4136.9228515625,4148.3334960938,4157.9487304688,4092.5642089844,4090.1281738281,4079.4870605469,4090.5129394531,4082.6923828125,4036.0256347656,4033.9743652344,4094.2307128906,4073.7180175781,4113.0771484375,33025,0.0,0.0,1.0,7.0
15.6171875,62,4114.1025390625,4139.3588867188,4145.384765625,4155.0,4100.7690429688,4089.7436523438,4071.6667480469,4074.8718261719,4073.4614257813,4029.7436523438,4026.794921875,4088.58984375,4062.4357910156,4107.0512695313,33025,0.0,0.0,1.0,7.0
15.625,62,4111.794921875,4135.6411132813,4139.615234375,4155.384765625,4109.2309570313,4096.6665039063,4075.5129394531,4071.9230957031,4070.7692871094,4029.1025390625,4026.794921875,4088.9743652344,4061.2819824219,4107.0512695313,33025,0.0,0.0,1.0,7.0
15.6328125,62,4111.1538085938,4132.1796875,4140.0,4153.8461914063,4107.8203125,4102.8203125,4093.9743652344,4088.9743652344,4085.3845214844,4037.8205566406,4039.6154785156,4095.8974609375,4074.1025390625,4109.8715820313,33025,0.0,0.0,1.0,7.0
15.640625,62,4111.9228515625,4129.3588867188,4138.205078125,4145.0,4104.615234375,4098.4614257813,4095.0,4099.2309570313,4095.7692871094,4044.6154785156,4045.5129394531,4103.7177734375,4079.6154785156,4108.0771484375,33025,0.0,0.0,1.0,7.0
15.6484375,62,4107.9487304688,4127.5639648438,4132.1796875,4142.6923828125,4101.2822265625,4088.3332519531,4079.6154785156,4093.0769042969,4086.1538085938,4038.4614257813,4038.3332519531,4109.4873046875,4073.9743652344,4107.1796875,33025,0.0,0.0,1.0,7.0
15.65625,62,4110.6411132813,4134.3588867188,4136.6665039063,4154.1025390625,4101.6665039063,4086.5385742188,4072.0512695313,4088.0769042969,4081.41015625,4035.8974609375,4037.1794433594,4116.5385742188,4074.1025390625,4110.1284179688,33025,0.0,0.0,1.0,7.0
15.6640625,62,4117.0512695313,4145.0,4137.6923828125,4156.6665039063,4103.8461914063,4088.3332519531,4072.4357910156,4092.8205566406,4094.1025390625,4044.8718261719,4045.1281738281,4123.58984375,4078.9743652344,4112.0512695313,33025,0.0,0.0,1.0,7.0
15.671875,62,4111.794921875,4140.0,4128.3334960938,4142.6923828125,4100.2563476563,4091.1538085938,4080.1281738281,4098.205078125,4095.5129394531,4044.3588867188,4038.4614257813,4113.58984375,4071.794921875,4104.615234375,33025,0.0,0.0,1.0,7.0
15.6796875,62,4097.3076171875,4124.3588867188,4115.7690429688,4128.9741210938,4095.8974609375,4100.0,4090.6411132813,4091.2819824219,4079.8718261719,4030.6411132813,4020.5129394531,4091.41015625,4058.58984375,4086.1538085938,33025,0.0,0.0,1.0,7.0
15.6875,62,4088.9743652344,4119.2309570313,4103.9741210938,4124.2309570313,4092.3076171875,4104.4873046875,4095.1281738281,4078.205078125,4074.8718261719,4028.7180175781,4020.5129394531,4087.4357910156,4059.6154785156,4073.9743652344,33025,0.0,0.0,1.0,7.0
15.6953125,62,4100.0,4121.41015625,4107.9487304688,4129.8715820313,4097.0512695313,4102.0512695313,4093.58984375,4077.3076171875,4082.5642089844,4037.5642089844,4040.8974609375,4106.2822265625,4076.9230957031,4089.7436523438,33025,0.0,0.0,1.0,7.0
15.703125,62,4115.384765625,4130.7690429688,4131.0258789063,4145.7690429688,4109.7436523438,4096.1538085938,4084.1025390625,4086.9230957031,4089.7436523438,4044.2307128906,4059.3588867188,4127.8203125,4092.3076171875,4117.9487304688,33025,0.0,0.0,1.0,7.0
15.7109375,62,4119.1025390625,4147.0512695313,4147.5639648438,4156.9228515625,4111.9228515625,4093.205078125,4077.4357910156,4097.3076171875,4097.1796875,4053.7180175781,4066.794921875,4136.41015625,4097.8203125,4123.3334960938,33025,0.0,0.0,1.0,7.0
15.71875,62,4116.0258789063,4148.4614257813,4138.3334960938,4151.794921875,4106.9228515625,4095.5129394531,4085.2563476563,4106.2822265625,4105.5126953125,4057.9487304688,4061.5385742188,4127.9487304688,4097.5639648438,4111.5385742188,33025,0.0,0.0,1.0,7.0
15.7265625,62,4110.8974609375,4136.2822265625,4123.3334960938,4142.1796875,4107.8203125,4095.5129394531,4091.794921875,4110.7690429688,4108.3334960938,4052.1794433594,4053.0769042969,4112.0512695313,4089.6154785156,4104.1025390625,33025,0.0,0.0,1.0,7.0
15.734375,62,4108.8461914063,4135.7690429688,4124.615234375,4143.205078125,4105.1284179688,4096.1538085938,4088.58984375,4109.2309570313,4108.9741210938,4048.9743652344,4054.4870605469,4110.384765625,4085.6411132813,4103.0771484375,33025,0.0,0.0,1.0,7.0
15.7421875,62,4108.4614257813,4135.7690429688,4126.6665039063,4144.3588867188,4105.8974609375,4103.8461914063,4093.4614257813,4106.794921875,4108.0771484375,4047.4357910156,4059.1025390625,4123.205078125,4090.5129394531,4105.6411132813,33025,0.0,0.0,1.0,7.0
15.75,63,4110.384765625,4128.8461914063,4118.8461914063,4137.9487304688,4112.5639648438,4109.3588867188,4099.3588867188,4102.3076171875,4098.58984375,4040.6411132813,4055.6411132813,4126.2822265625,4090.0,4106.794921875,33025,0.0,0.0,1.0,7.0
15.7578125,63,4110.5126953125,4131.1538085938,4117.8203125,4135.2563476563,4103.3334960938,4103.58984375,4092.9487304688,4093.0769042969,4089.1025390625,4035.2563476563,4047.8205566406,4113.0771484375,4080.1281738281,4099.7436523438,33025,0.0,0.0,1.0,7.0
15.765625,63,4103.9741210938,4132.3076171875,4124.2309570313,4137.3076171875,4100.2563476563,4104.2309570313,4090.7692871094,4090.6411132813,4090.3845214844,4036.6667480469,4047.4357910156,4105.0,4074.6154785156,4092.6923828125,33025,0.0,0.0,1.0,7.0
15.7734375,63,4100.5126953125,4121.9228515625,4120.5126953125,4135.8974609375,4117.3076171875,4109.615234375,4095.0,4099.7436523438,4094.2307128906,4041.41015625,4049.4870605469,4105.2563476563,4078.7180175781,4092.8205566406,33025,0.0,0.0,1.0,7.0
15.78125,63,4106.41015625,4124.2309570313,4117.8203125,4137.0512695313,4124.615234375,4107.4360351563,4095.1281738281,4108.205078125,4095.5129394531,4043.8461914063,4049.8718261719,4106.9228515625,4080.8974609375,4093.58984375,33025,0.0,0.0,1.0,7.0
15.7890625,63,4114.3588867188,4134.4873046875,4126.0258789063,4142.5639648438,4116.6665039063,4106.2822265625,4096.1538085938,4104.2309570313,4094.4870605469,4040.1281738281,4055.7692871094,4113.8461914063,4079.7436523438,4095.3845214844,33025,0.0,0.0,1.0,7.0
15.796875,63,4116.6665039063,4127.5639648438,4127.1796875,4141.41015625,4111.794921875,4107.0512695313,4102.5639648438,4092.1794433594,4088.8461914063,4036.0256347656,4056.41015625,4116.9228515625,4080.7692871094,4097.6923828125,33025,0.0,0.0,1.0,7.0
15.8046875,63,4110.5126953125,4121.9228515625,4119.4873046875,4137.4360351563,4110.2563476563,4106.41015625,4104.7436523438,4091.1538085938,4087.8205566406,4038.7180175781,4051.9230957031,4116.6665039063,4081.41015625,4096.6665039063,33025,0.0,0.0,1.0,7.0
15.8125,63,4105.5126953125,4125.5126953125,4119.1025390625,4137.6923828125,4107.6923828125,4104.1025390625,4098.9741210938,4099.8715820313,4092.5642089844,4042.1794433594,4052.5642089844,4115.8974609375,4080.5129394531,4096.2822265625,33025,0.0,0.0,1.0,7.0
15.8203125,63,4109.1025390625,4126.41015625,4128.4614257813,4140.2563476563,4108.58984375,4101.5385742188,4091.9230957031,4103.0771484375,4093.205078125,4045.1281738281,4058.3332519531,4116.1538085938,4084.8718261719,4097.8203125,33025,0.0,0.0,1.0,7.0
15.828125,63,4116.9228515625,4132.8203125,4135.0,4143.8461914063,4110.5126953125,4096.6665039063,4088.8461914063,4102.8203125,4093.9743652344,4052.0512695313,4064.1025390625,4121.0258789063,4091.5385742188,4108.9741210938,33025,0.0,0.0,1.0,7.0
15.8359375,63,4120.0,4136.2822265625,4132.8203125,4143.205078125,4108.7177734375,4093.3332519531,4089.2307128906,4101.2822265625,4095.7692871094,4054.3588867188,4068.58984375,4125.2563476563,4091.1538085938,4123.7177734375,33025,0.0,0.0,1.0,7.0
15.84375,63,4111.6665039063,4125.1284179688,4122.4360351563,4137.1796875,4105.6411132813,4097.9487304688,4089.8718261719,4098.9741210938,4093.7180175781,4050.8974609375,4068.205078125,4126.1538085938,4090.0,4122.8203125,33025,0.0,0.0,1.0,8.0
15.8515625,63,4103.3334960938,4116.794921875,4113.7177734375,4134.1025390625,4106.5385742188,4104.4873046875,4091.6667480469,4098.0771484375,4093.0769042969,4050.6411132813,4061.5385742188,4120.1284179688,4089.3588867188,4106.0258789063,33025,0.0,0.0,1.0,8.0
15.859375,63,4106.794921875,4122.1796875,4117.8203125,4135.7690429688,4109.4873046875,4101.2822265625,4090.2563476563,4094.8718261719,4093.9743652344,4049.3588867188,4057.3076171875,4110.8974609375,4084.1025390625,4103.0771484375,33025,0.0,0.0,1.0,8.0
15.8671875,63,4115.7690429688,4124.7436523438,4121.9228515625,4137.0512695313,4105.8974609375,4094.2307128906,4086.41015625,4085.6411132813,4086.41015625,4040.7692871094,4056.0256347656,4110.384765625,4079.7436523438,4119.1025390625,33025,0.0,0.0,1.0,8.0
15.875,63,4115.7690429688,4121.1538085938,4120.5126953125,4136.794921875,4103.7177734375,4096.5385742188,4084.7436523438,4085.3845214844,4081.0256347656,4043.0769042969,4063.4614257813,4122.4360351563,4084.4870605469,4127.0512695313,33025,0.0,0.0,1.0,8.0
15.8828125,63,4106.6665039063,4118.7177734375,4121.41015625,4136.1538085938,4110.384765625,4107.4360351563,4092.6923828125,4100.0,4096.1538085938,4058.7180175781,4076.2819824219,4127.9487304688,4091.794921875,4123.7177734375,33025,0.0,0.0,1.0,8.0
15.890625,63,4104.615234375,4119.8715820313,4119.8715820313,4136.2822265625,4114.2309570313,4109.1025390625,4100.1284179688,4108.9741210938,4112.3076171875,4063.58984375,4074.7436523438,4121.1538085938,4092.9487304688,4123.0771484375,33025,0.0,0.0,1.0,8.0
15.8984375,63,4111.5385742188,4119.8715820313,4115.8974609375,4136.9228515625,4108.205078125,4096.0258789063,4089.7436523438,4108.4614257813,4111.0258789063,4059.6154785156,4070.7692871094,4117.1796875,4091.0256347656,4125.0,33025,0.0,0.0,1.0,8.0
15.90625,63,4114.615234375,4115.5126953125,4121.41015625,4136.9228515625,4103.4614257813,4093.3332519531,4080.5129394531,4102.3076171875,4101.1538085938,4062.0512695313,4081.0256347656,4122.0512695313,4092.0512695313,4125.384765625,33025,0.0,0.0,1.0,8.0
15.9140625,63,4108.7177734375,4111.6665039063,4126.794921875,4138.0771484375,4112.3076171875,4106.0258789063,4087.0512695313,4090.1281738281,4092.3076171875,4062.3076171875,4085.2563476563,4122.5639648438,4091.794921875,4124.3588867188,33025,0.0,0.0,1.0,8.0
15.921875,63,4097.8203125,4108.4614257813,4113.3334960938,4136.6665039063,4117.5639648438,4110.2563476563,4092.3076171875,4081.9230957031,4089.2307128906,4058.205078125,4077.3076171875,4117.0512695313,4088.58984375,4119.8715820313,33025,0.0,0.0,1.0,8.0
15.9296875,63,4098.4614257813,4107.3076171875,4106.794921875,4134.8715820313,4100.8974609375,4103.7177734375,4088.58984375,4086.1538085938,4093.0769042969,4061.1538085938,4080.0,4128.3334960938,4091.5385742188,4119.1025390625,33025,0.0,0.0,1.0,8.0
15.9375,63,4110.5126953125,4114.8715820313,4121.794921875,4138.7177734375,4094.4870605469,4100.384765625,4088.4614257813,4092.8205566406,4095.1281738281,4062.5642089844,4084.1025390625,4145.0,4096.41015625,4129.4873046875,33025,0.0,0.0,1.0,8.0
15.9453125,63,4113.0771484375,4123.0771484375,4130.384765625,4142.3076171875,4114.4873046875,4097.9487304688,4092.4357910156,4100.1284179688,4097.8203125,4062.4357910156,4078.0769042969,4134.3588867188,4094.4870605469,4133.0771484375,33025,0.0,0.0,1.0,8.0
15.953125,63,4107.8203125,4115.2563476563,4124.7436523438,4138.205078125,4120.5126953125,4096.9228515625,4091.1538085938,4109.2309570313,4106.2822265625,4069.7436523438,4077.6923828125,4120.5126953125,4091.794921875,4125.5126953125,33025,0.0,0.0,1.0,8.0
15.9609375,63,4104.1025390625,4104.3588867188,4117.6923828125,4133.7177734375,4107.1796875,4102.3076171875,4092.6923828125,4111.9228515625,4108.8461914063,4071.6667480469,4082.8205566406,4127.9487304688,4094.7436523438,4121.0258789063,33025,0.0,0.0,1.0,8.0
15.96875,63,4104.4873046875,4113.0771484375,4116.6665039063,4136.1538085938,4112.6923828125,4106.41015625,4095.3845214844,4104.4873046875,4098.205078125,4062.5642089844,4077.8205566406,4129.4873046875,4094.6154785156,4123.4614257813,33025,0.0,0.0,1.0,8.0
15.9765625,63,4111.41015625,4127.0512695313,4122.5639648438,4139.3588867188,4122.1796875,4108.3334960938,4094.4870605469,4095.1281738281,4088.7180175781,4057.1794433594,4072.1794433594,4124.7436523438,4091.2819824219,4125.2563476563,33025,0.0,0.0,1.0,8.0
15.984375,63,4115.2563476563,4122.5639648438,4121.9228515625,4138.4614257813,4111.6665039063,4105.8974609375,4094.1025390625,4096.6665039063,4093.8461914063,4061.5385742188,4079.8718261719,4128.4614257813,4091.41015625,4125.6411132813,33025,0.0,0.0,1.0,8.0
15.9921875,63,4111.794921875,4109.8715820313,4118.58984375,4136.2822265625,4102.8203125,4101.5385742188,4095.8974609375,4106.794921875,4103.7177734375,4067.6923828125,4089.2307128906,4129.3588867188,4092.3076171875,4127.3076171875,33025,0.0,0.0,1.0,8.0
16.0,64,4103.9741210938,4105.7690429688,4114.8715820313,4135.8974609375,4104.3588867188,4103.7177734375,4099.615234375,4117.3076171875,4109.615234375,4073.3332519531,4087.6923828125,4124.1025390625,4095.1281738281,4125.5126953125,33025,0.0,0.0,1.0,8.0
16.0078125,64,4102.9487304688,4105.1284179688,4106.41015625,4136.6665039063,4112.6923828125,4110.8974609375,4103.4614257813,4125.2563476563,4120.384765625,4078.4614257813,4085.3845214844,4122.0512695313,4101.41015625,4124.1025390625,33025,0.0,0.0,1.0,8.0
16.015625,64,4111.0258789063,4107.3076171875,4110.5126953125,4137.9487304688,4122.6923828125,4113.3334960938,4106.5385742188,4124.2309570313,4128.205078125,4081.1538085938,4095.8974609375,4128.3334960938,4106.41015625,4131.2822265625,33025,0.0,0.0,1.0,8.0
16.0234375,64,4116.41015625,4113.9741210938,4122.1796875,4137.9487304688,4120.7690429688,4109.4873046875,4107.8203125,4111.2822265625,4115.1284179688,4079.6154785156,4110.2563476563,4138.9741210938,4108.58984375,4143.205078125,33025,0.0,0.0,1.0,8.0
16.03125,64,4115.6411132813,4112.9487304688,4117.0512695313,4131.0258789063,4107.6923828125,4106.41015625,4108.8461914063,4109.4873046875,4101.41015625,4074.4870605469,4105.6411132813,4142.1796875,4109.1025390625,4145.7690429688,33025,0.0,0.0,1.0,8.0
16.0390625,64,4108.205078125,4104.8715820313,4106.794921875,4125.8974609375,4101.9228515625,4106.794921875,4108.4614257813,4120.7690429688,4108.205078125,4075.1281738281,4091.9230957031,4136.9228515625,4107.4360351563,4140.1284179688,33025,0.0,0.0,1.0,8.0
16.046875,64,4100.0,4103.4614257813,4106.2822265625,4130.1284179688,4106.9228515625,4107.1796875,4107.1796875,4120.2563476563,4113.3334960938,4079.1025390625,4092.3076171875,4136.41015625,4104.8715820313,4133.7177734375,33025,0.0,0.0,1.0,8.0
16.0546875,64,4099.3588867188,4105.8974609375,4101.9228515625,4131.5385742188,4108.4614257813,4105.1284179688,4107.6923828125,4112.1796875,4107.8203125,4078.58984375,4096.5385742188,4135.8974609375,4102.3076171875,4122.6923828125,33025,0.0,0.0,1.0,8.0
16.0625,64,4097.1796875,4105.5126953125,4097.8203125,4127.3076171875,4104.2309570313,4103.8461914063,4103.3334960938,4108.4614257813,4105.7690429688,4075.5129394531,4090.1281738281,4133.9741210938,4096.0258789063,4112.3076171875,33025,0.0,0.0,1.0,8.0
16.0703125,64,4091.794921875,4105.7690429688,4106.9228515625,4123.7177734375,4102.4360351563,4101.794921875,4091.9230957031,4105.2563476563,4105.384765625,4072.3076171875,4090.8974609375,4148.0771484375,4094.1025390625,4112.4360351563,33025,0.0,0.0,1.0,8.0
16.078125,64,4093.9743652344,4108.7177734375,4112.8203125,4122.5639648438,4107.9487304688,4102.1796875,4088.7180175781,4103.3334960938,4106.794921875,4075.8974609375,4103.205078125,4163.9741210938,4101.794921875,4117.1796875,33025,0.0,0.0,1.0,8.0
16.0859375,64,4102.3076171875,4115.1284179688,4108.8461914063,4129.2309570313,4115.2563476563,4108.205078125,4100.384765625,4107.9487304688,4114.1025390625,4085.5129394531,4108.58984375,4157.8203125,4107.3076171875,4120.2563476563,33025,0.0,0.0,1.0,8.0
16.09375,64,4108.8461914063,4120.5126953125,4109.8715820313,4136.794921875,4111.2822265625,4109.4873046875,4108.4614257813,4111.9228515625,4115.384765625,4087.3076171875,4108.3334960938,4140.1284179688,4107.3076171875,4121.0258789063,33025,0.0,0.0,1.0,9.0
16.1015625,64,4107.8203125,4119.2309570313,4108.58984375,4127.9487304688,4110.0,4108.58984375,4108.4614257813,4111.0258789063,4105.1284179688,4075.1281738281,4105.384765625,4123.0771484375,4103.0771484375,4115.5126953125,33025,0.0,0.0,1.0,9.0
16.109375,64,4104.4873046875,4119.4873046875,4102.1796875,4120.384765625,4116.0258789063,4111.2822265625,4112.9487304688,4111.6665039063,4102.3076171875,4070.1281738281,4100.6411132813,4109.4873046875,4099.4873046875,4106.1538085938,33025,0.0,0.0,1.0,9.0
16.1171875,64,4106.0258789063,4126.5385742188,4110.6411132813,4128.58984375,4110.7690429688,4113.3334960938,4122.8203125,4119.1025390625,4115.5126953125,4083.3332519531,4104.3588867188,4105.8974609375,4104.2309570313,4104.1025390625,33025,0.0,0.0,1.0,9.0
16.125,64,4110.0,4125.1284179688,4116.9228515625,4128.7177734375,4110.6411132813,4115.5126953125,4125.8974609375,4125.2563476563,4126.794921875,4093.4614257813,4108.205078125,4106.41015625,4110.1284179688,4109.7436523438,33025,0.0,0.0,1.0,9.0
16.1328125,64,4114.4873046875,4121.41015625,4110.384765625,4126.6665039063,4121.5385742188,4116.5385742188,4119.8715820313,4125.0,4126.6665039063,4093.205078125,4106.0258789063,4109.7436523438,4109.8715820313,4117.3076171875,33025,0.0,0.0,1.0,9.0
16.140625,64,4114.2309570313,4128.9741210938,4111.41015625,4133.3334960938,4116.6665039063,4109.8715820313,4117.9487304688,4125.2563476563,4124.615234375,4091.794921875,4113.4614257813,4124.4873046875,4111.2822265625,4124.2309570313,33025,0.0,0.0,1.0,9.0
16.1484375,64,4113.205078125,4131.6665039063,4117.9487304688,4133.7177734375,4107.4360351563,4104.3588867188,4116.0258789063,4119.8715820313,4125.384765625,4092.8205566406,4124.8715820313,4133.8461914063,4115.2563476563,4127.4360351563,33025,0.0,0.0,1.0,9.0
16.15625,64,4108.9741210938,4123.58984375,4113.0771484375,4129.2309570313,4115.2563476563,4107.0512695313,4106.794921875,4108.3334960938,4121.0258789063,4091.9230957031,4121.1538085938,4122.3076171875,4113.9741210938,4122.3076171875,33025,0.0,0.0,1.0,9.0
16.1640625,64,4101.1538085938,4120.2563476563,4100.2563476563,4127.9487304688,4119.2309570313,4107.6923828125,4101.5385742188,4101.794921875,4110.1284179688,4085.0,4110.7690429688,4110.6411132813,4108.7177734375,4110.7690429688,33025,0.0,0.0,1.0,9.0
16.171875,64,4099.3588867188,4122.6923828125,4096.0258789063,4125.0,4111.2822265625,4105.7690429688,4106.0258789063,4097.3076171875,4098.9741210938,4074.3588867188,4102.8203125,4102.4360351563,4100.6411132813,4097.9487304688,33025,0.0,0.0,1.0,9.0
16.1796875,64,4098.205078125,4123.3334960938,4099.7436523438,4122.0512695313,4110.384765625,4106.9228515625,4108.7177734375,4090.6411132813,4090.1281738281,4066.5385742188,4096.1538085938,4091.1538085938,4091.794921875,4089.7436523438,33025,0.0,0.0,1.0,9.0
16.1875,64,4100.7690429688,4122.8203125,4105.7690429688,4124.2309570313,4108.8461914063,4107.4360351563,4108.7177734375,4092.9487304688,4087.1794433594,4066.6667480469,4090.0,4088.0769042969,4089.8718261719,4093.4614257813,33025,0.0,0.0,1.0,9.0
16.1953125,64,4107.5639648438,4122.1796875,4106.41015625,4123.205078125,4105.384765625,4107.9487304688,4113.0771484375,4102.6923828125,4088.205078125,4069.1025390625,4089.3588867188,4090.6411132813,4095.3845214844,4101.5385742188,33025,0.0,0.0,1.0,9.0
16.203125,64,4108.58984375,4121.794921875,4103.3334960938,4120.7690429688,4106.9228515625,4106.6665039063,4112.1796875,4108.58984375,4095.5129394531,4075.0,4099.3588867188,4090.6411132813,4102.6923828125,4101.794921875,33025,0.0,0.0,1.0,9.0
16.2109375,64,4106.5385742188,4123.7177734375,4108.205078125,4123.58984375,4111.6665039063,4107.5639648438,4111.5385742188,4115.1284179688,4110.2563476563,4085.2563476563,4108.9741210938,4097.3076171875,4109.615234375,4100.8974609375,33025,0.0,0.0,1.0,9.0
16.21875,64,4106.5385742188,4124.615234375,4110.7690429688,4126.41015625,4113.8461914063,4109.3588867188,4114.8715820313,4125.2563476563,4123.205078125,4092.0512695313,4109.8715820313,4104.1025390625,4112.3076171875,4108.8461914063,33025,0.0,0.0,1.0,9.0
16.2265625,64,4109.2309570313,4124.8715820313,4108.8461914063,4125.8974609375,4106.6665039063,4105.2563476563,4110.8974609375,4123.205078125,4123.9741210938,4092.9487304688,4107.9487304688,4097.6923828125,4112.8203125,4110.2563476563,33025,0.0,0.0,1.0,9.0
16.234375,64,4105.8974609375,4123.9741210938,4111.1538085938,4125.5126953125,4107.8203125,4103.4614257813,4105.0,4102.4360351563,4108.58984375,4085.6411132813,4102.3076171875,4089.7436523438,4106.5385742188,4097.5639648438,33025,0.0,0.0,1.0,9.0
16.2421875,64,4101.6665039063,4124.3588867188,4105.7690429688,4127.5639648438,4117.9487304688,4107.8203125,4105.6411132813,4079.7436523438,4085.1281738281,4071.0256347656,4091.9230957031,4089.6154785156,4093.0769042969,4087.9487304688,33025,0.0,0.0,1.0,9.0
16.25,65,4106.1538085938,4126.41015625,4099.2309570313,4127.8203125,4113.8461914063,4102.9487304688,4102.5639648438,4073.8461914063,4075.7692871094,4065.1281738281,4088.0769042969,4089.7436523438,4089.3588867188,4087.6923828125,33025,0.0,0.0,1.0,9.0
16.2578125,65,4106.6665039063,4125.7690429688,4101.794921875,4124.7436523438,4104.1025390625,4096.5385742188,4098.4614257813,4084.1025390625,4085.8974609375,4072.9487304688,4092.5642089844,4088.7180175781,4097.8203125,4090.7692871094,33025,0.0,0.0,1.0,9.0
16.265625,65,4099.2309570313,4121.6665039063,4100.5126953125,4123.8461914063,4105.0,4098.9741210938,4104.1025390625,4092.3076171875,4091.9230957031,4076.0256347656,4092.1794433594,4094.2307128906,4099.7436523438,4090.0,33025,0.0,0.0,1.0,9.0
16.2734375,65,4097.8203125,4120.0,4095.5129394531,4125.0,4108.8461914063,4098.7177734375,4110.0,4095.0,4090.3845214844,4072.4357910156,4087.6923828125,4102.8203125,4096.9228515625,4090.0,33025,0.0,0.0,1.0,9.0
16.28125,65,4100.6411132813,4122.8203125,4102.9487304688,4123.8461914063,4109.7436523438,4097.9487304688,4107.6923828125,4101.41015625,4098.7177734375,4073.7180175781,4092.6923828125,4111.5385742188,4102.8203125,4099.615234375,33025,0.0,0.0,1.0,9.0
16.2890625,65,4102.9487304688,4123.7177734375,4113.205078125,4122.5639648438,4103.58984375,4101.5385742188,4106.1538085938,4106.41015625,4105.384765625,4078.205078125,4103.7177734375,4119.1025390625,4108.9741210938,4108.205078125,33025,0.0,0.0,1.0,9.0
16.296875,65,4104.2309570313,4121.0258789063,4109.615234375,4123.0771484375,4097.1796875,4102.1796875,4114.8715820313,4107.5639648438,4106.5385742188,4085.8974609375,4107.1796875,4124.1025390625,4108.0771484375,4107.1796875,33025,0.0,0.0,1.0,9.0
16.3046875,65,4102.4360351563,4119.615234375,4102.0512695313,4123.4614257813,4104.7436523438,4103.4614257813,4124.8715820313,4111.5385742188,4115.384765625,4092.6923828125,4107.0512695313,4128.58984375,4108.58984375,4103.7177734375,33025,0.0,0.0,1.0,9.0
16.3125,65,4099.615234375,4114.8715820313,4103.9741210938,4122.4360351563,4114.8715820313,4109.615234375,4124.2309570313,4108.8461914063,4113.9741210938,4087.0512695313,4106.794921875,4130.1284179688,4108.0771484375,4100.2563476563,33025,0.0,0.0,1.0,9.0
16.3203125,65,4096.9228515625,4108.8461914063,4099.8715820313,4120.7690429688,4111.41015625,4108.8461914063,4116.1538085938,4093.8461914063,4098.7177734375,4076.0256347656,4100.8974609375,4125.2563476563,4104.2309570313,4092.8205566406,33025,0.0,0.0,1.0,9.0
16.328125,65,4100.5126953125,4114.615234375,4090.0,4120.1284179688,4106.9228515625,4105.1284179688,4113.0771484375,4089.2307128906,4096.0258789063,4072.9487304688,4095.7692871094,4121.0258789063,4103.3334960938,4093.3332519531,33025,0.0,0.0,1.0,9.0
16.3359375,65,4106.41015625,4124.3588867188,4100.1284179688,4123.4614257813,4109.1025390625,4106.9228515625,4117.8203125,4102.5639648438,4104.4873046875,4079.1025390625,4102.1796875,4131.2822265625,4106.794921875,4104.8715820313,33025,0.0,0.0,1.0,9.0
16.34375,65,4106.1538085938,4115.8974609375,4116.6665039063,4126.1538085938,4110.2563476563,4106.5385742188,4122.4360351563,4112.6923828125,4112.8203125,4089.8718261719,4115.8974609375,4144.7436523438,4111.1538085938,4110.7690429688,33025,0.0,0.0,1.0,10.0
16.3515625,65,4106.9228515625,4107.9487304688,4114.2309570313,4122.8203125,4110.6411132813,4106.2822265625,4123.58984375,4110.7690429688,4120.0,4093.7180175781,4119.1025390625,4142.3076171875,4113.3334960938,4108.0771484375,33025,0.0,0.0,1.0,10.0
16.359375,65,4112.0512695313,4122.3076171875,4112.0512695313,4124.4873046875,4108.0771484375,4107.1796875,4122.3076171875,4109.8715820313,4116.6665039063,4089.1025390625,4113.3334960938,4135.0,4111.41015625,4106.6665039063,33025,0.0,0.0,1.0,10.0
16.3671875,65,4115.8974609375,4128.3334960938,4115.7690429688,4128.9741210938,4103.58984375,4106.0258789063,4121.9228515625,4112.1796875,4107.3076171875,4088.8461914063,4106.0258789063,4138.4614257813,4111.2822265625,4109.2309570313,33025,0.0,0.0,1.0,10.0
16.375,65,4109.4873046875,4110.7690429688,4103.205078125,4122.9487304688,4105.5126953125,4105.8974609375,4123.4614257813,4110.5126953125,4108.7177734375,4086.9230957031,4094.3588867188,4138.205078125,4107.8203125,4106.41015625,33025,0.0,0.0,1.0,10.0
16.3828125,65,4100.2563476563,4103.9741210938,4096.5385742188,4116.6665039063,4110.5126953125,4109.7436523438,4125.384765625,4109.1025390625,4109.1025390625,4077.3076171875,4088.3332519531,4122.9487304688,4099.3588867188,4105.5126953125,33025,0.0,0.0,1.0,10.0
16.390625,65,4103.3334960938,4112.4360351563,4112.6923828125,4123.205078125,4108.0771484375,4107.0512695313,4119.3588867188,4105.384765625,4098.4614257813,4072.9487304688,4091.1538085938,4115.5126953125,4094.6154785156,4105.2563476563,33025,0.0,0.0,1.0,10.0
16.3984375,65,4103.4614257813,4109.3588867188,4109.2309570313,4123.4614257813,4105.1284179688,4101.0258789063,4110.384765625,4094.1025390625,4089.4870605469,4071.794921875,4085.7692871094,4123.58984375,4093.0769042969,4096.2822265625,33025,0.0,0.0,1.0,10.0
16.40625,65,4095.1281738281,4103.4614257813,4089.3588867188,4109.4873046875,4109.1025390625,4104.4873046875,4113.7177734375,4085.5129394531,4086.9230957031,4066.6667480469,4075.1281738281,4118.0771484375,4088.8461914063,4088.3332519531,33025,0.0,0.0,1.0,10.0
16.4140625,65,4095.0,4106.41015625,4092.4357910156,4103.205078125,4106.1538085938,4107.1796875,4120.1284179688,4093.58984375,4093.7180175781,4067.5642089844,4080.2563476563,4101.794921875,4091.1538085938,4089.3588867188,33025,0.0,0.0,1.0,10.0
16.421875,65,4098.0771484375,4105.7690429688,4102.9487304688,4109.8715820313,4103.58984375,4106.794921875,4119.7436523438,4108.9741210938,4107.9487304688,4083.0769042969,4096.794921875,4110.5126953125,4102.4360351563,4090.5129394531,33025,0.0,0.0,1.0,10.0
16.4296875,65,4097.8203125,4104.3588867188,4099.615234375,4116.41015625,4108.4614257813,4105.0,4113.7177734375,4105.6411132813,4111.0258789063,4091.9230957031,4107.8203125,4128.7177734375,4108.0771484375,4093.0769042969,33025,0.0,0.0,1.0,10.0
16.4375,65,4100.1284179688,4107.8203125,4098.3334960938,4114.4873046875,4100.6411132813,4096.5385742188,4106.2822265625,4091.2819824219,4099.4873046875,4082.6923828125,4104.1025390625,4127.5639648438,4106.41015625,4101.794921875,33025,0.0,0.0,1.0,10.0
16.4453125,65,4103.8461914063,4106.794921875,4109.2309570313,4112.0512695313,4093.4614257813,4093.58984375,4109.3588867188,4094.8718261719,4097.5639648438,4081.5385742188,4099.615234375,4129.7436523438,4105.7690429688,4108.7177734375,33025,0.0,0.0,1.0,10.0
16.453125,65,4101.9228515625,4104.3588867188,4110.7690429688,4120.0,4105.8974609375,4101.41015625,4120.0,4109.2309570313,4106.794921875,4089.1025390625,4104.615234375,4138.3334960938,4106.2822265625,4106.41015625,33025,0.0,0.0,1.0,10.0
16.4609375,65,4098.0771484375,4109.4873046875,4103.9741210938,4123.4614257813,4113.8461914063,4104.7436523438,4121.9228515625,4109.7436523438,4106.5385742188,4087.0512695313,4102.5639648438,4129.615234375,4105.7690429688,4096.1538085938,33025,0.0,0.0,1.0,10.0
16.46875,65,4097.9487304688,4108.9741210938,4105.5126953125,4115.5126953125,4103.58984375,4102.4360351563,4118.9741210938,4105.2563476563,4103.58984375,4081.5385742188,4095.8974609375,4117.0512695313,4103.58984375,4090.6411132813,33025,0.0,0.0,1.0,10.0
16.4765625,65,4096.0258789063,4096.5385742188,4107.1796875,4113.3334960938,4102.5639648438,4105.1284179688,4119.615234375,4105.6411132813,4107.5639648438,4081.41015625,4100.1284179688,4122.8203125,4105.1284179688,4099.3588867188,33025,0.0,0.0,1.0,10.0
16.484375,65,4098.205078125,4094.3588867188,4104.2309570313,4120.8974609375,4111.41015625,4106.2822265625,4119.3588867188,4104.8715820313,4107.6923828125,4083.4614257813,4102.4360351563,4127.9487304688,4107.3076171875,4108.205078125,33025,0.0,0.0,1.0,10.0
16.4921875,65,4102.3076171875,4107.5639648438,4105.2563476563,4123.7177734375,4104.615234375,4103.8461914063,4119.615234375,4111.9228515625,4111.2822265625,4087.4357910156,4094.6154785156,4122.9487304688,4100.2563476563,4107.1796875,33025,0.0,0.0,1.0,10.0
16.5,66,4103.58984375,4112.6923828125,4105.8974609375,4121.1538085938,4098.9741210938,4103.58984375,4122.0512695313,4120.7690429688,4119.2309570313,4089.6154785156,4095.8974609375,4126.41015625,4094.2307128906,4106.794921875,33025,0.0,0.0,1.0,10.0
16.5078125,66,4108.0771484375,4107.9487304688,4105.6411132813,4123.4614257813,4113.3334960938,4106.6665039063,4124.615234375,4116.2822265625,4116.41015625,4090.1281738281,4105.6411132813,4137.0512695313,4101.9228515625,4110.8974609375,33025,0.0,0.0,1.0,10.0
16.515625,66,4105.6411132813,4107.8203125,4110.6411132813,4127.4360351563,4123.8461914063,4109.2309570313,4122.1796875,4106.1538085938,4105.2563476563,4091.0256347656,4109.3588867188,4139.4873046875,4103.9741210938,4109.615234375,33025,0.0,0.0,1.0,10.0
16.5234375,66,4095.0,4109.1025390625,4111.41015625,4123.58984375,4112.1796875,4101.1538085938,4109.615234375,4101.41015625,4097.1796875,4086.0256347656,4107.0512695313,4134.2309570313,4092.9487304688,4103.3334960938,33025,0.0,0.0,1.0,10.0
16.53125,66,4093.58984375,4105.8974609375,4107.3076171875,4117.1796875,4103.9741210938,4091.5385742188,4106.5385742188,4107.1796875,4102.4360351563,4084.3588867188,4106.41015625,4131.2822265625,4091.1538085938,4103.3334960938,33025,0.0,0.0,1.0,10.0
16.5390625,66,4099.1025390625,4106.2822265625,4109.8715820313,4118.7177734375,4109.8715820313,4099.3588867188,4120.8974609375,4121.794921875,4118.9741210938,4093.0769042969,4110.7690429688,4135.5126953125,4096.0258789063,4109.8715820313,33025,0.0,0.0,1.0,10.0
16.546875,66,4100.7690429688,4109.7436523438,4114.4873046875,4123.4614257813,4110.384765625,4109.7436523438,4122.5639648438,4123.3334960938,4121.794921875,4093.7180175781,4110.0,4140.6411132813,4092.1794433594,4109.7436523438,33025,0.0,0.0,1.0,10.0
16.5546875,66,4100.384765625,4109.3588867188,4112.4360351563,4122.0512695313,4106.0258789063,4104.2309570313,4108.7177734375,4106.6665039063,4106.2822265625,4088.3332519531,4106.794921875,4135.6411132813,4089.8718261719,4107.5639648438,33025,0.0,0.0,1.0,10.0
16.5625,66,4101.0258789063,4107.9487304688,4106.794921875,4119.7436523438,4106.9228515625,4100.1284179688,4110.384765625,4100.5126953125,4102.4360351563,4090.5129394531,4106.2822265625,4126.6665039063,4094.1025390625,4116.9228515625,33025,0.0,0.0,1.0,10.0
16.5703125,66,4098.8461914063,4107.1796875,4104.4873046875,4121.794921875,4111.1538085938,4109.3588867188,4118.58984375,4107.6923828125,4109.3588867188,4088.8461914063,4104.8715820313,4132.5639648438,4093.58984375,4124.4873046875,33025,0.0,0.0,1.0,10.0
16.578125,66,4092.6923828125,4104.2309570313,4102.5639648438,4120.1284179688,4108.4614257813,4110.0,4114.2309570313,4113.8461914063,4110.8974609375,4081.6667480469,4103.4614257813,4143.0771484375,4087.1794433594,4115.7690429688,33025,0.0,0.0,1.0,10.0
16.5859375,66,4094.4870605469,4104.8715820313,4107.0512695313,4114.4873046875,4103.0771484375,4101.41015625,4114.3588867188,4118.4614257813,4112.1796875,4082.4357910156,4104.4873046875,4139.8715820313,4085.8974609375,4108.58984375,33025,0.0,0.0,1.0,10.0
16.59375,66,4100.5126953125,4108.205078125,4111.794921875,4117.6923828125,4107.6923828125,4103.3334960938,4120.0,4112.5639648438,4107.3076171875,4082.9487304688,4106.9228515625,4127.8203125,4090.0,4111.41015625,33025,0.0,0.0,1.0,11.0
16.6015625,66,4097.6923828125,4102.9487304688,4102.1796875,4122.9487304688,4114.8715820313,4109.615234375,4119.4873046875,4102.4360351563,4098.9741210938,4079.4870605469,4106.0258789063,4126.0258789063,4089.7436523438,4114.615234375,33025,0.0,0.0,1.0,11.0
16.609375,66,4095.5129394531,4092.3076171875,4099.8715820313,4116.5385742188,4106.5385742188,4104.615234375,4119.4873046875,4112.3076171875,4110.1284179688,4085.7692871094,4107.1796875,4136.794921875,4088.7180175781,4119.4873046875,33025,0.0,0.0,1.0,11.0
16.6171875,66,4097.4360351563,4091.41015625,4108.3334960938,4106.9228515625,4092.5642089844,4095.7692871094,4117.5639648438,4122.9487304688,4122.9487304688,4095.1281738281,4112.6923828125,4141.1538085938,4091.41015625,4121.6665039063,33025,0.0,0.0,1.0,11.0
16.625,66,4099.2309570313,4094.2307128906,4102.3076171875,4106.0258789063,4095.2563476563,4092.6923828125,4108.0771484375,4107.8203125,4108.3334960938,4088.0769042969,4112.8203125,4135.384765625,4092.9487304688,4116.9228515625,33025,0.0,0.0,1.0,11.0
16.6328125,66,4098.9741210938,4091.9230957031,4097.4360351563,4109.3588867188,4107.0512695313,4094.7436523438,4104.3588867188,4091.1538085938,4092.9487304688,4080.0,4107.8203125,4133.58984375,4093.4614257813,4116.0258789063,33025,0.0,0.0,1.0,11.0
16.640625,66,4094.2307128906,4092.4357910156,4103.7177734375,4109.3588867188,4106.41015625,4097.3076171875,4108.4614257813,4093.7180175781,4100.8974609375,4084.1025390625,4106.0258789063,4126.0258789063,4090.7692871094,4115.2563476563,33025,0.0,0.0,1.0,11.0
16.6484375,66,4086.2819824219,4090.0,4101.41015625,4105.5126953125,4089.7436523438,4095.2563476563,4108.205078125,4098.0771484375,4103.8461914063,4083.58984375,4104.4873046875,4108.3334960938,4083.0769042969,4107.3076171875,33025,0.0,0.0,1.0,11.0
16.65625,66,4082.5642089844,4082.5642089844,4093.58984375,4101.6665039063,4082.1794433594,4088.4614257813,4105.1284179688,4097.4360351563,4097.9487304688,4081.41015625,4104.3588867188,4110.2563476563,4084.4870605469,4109.4873046875,33025,0.0,0.0,1.0,11.0
16.6640625,66,4089.1025390625,4083.4614257813,4094.4870605469,4101.9228515625,4095.1281738281,4088.4614257813,4104.4873046875,4102.0512695313,4103.58984375,4088.205078125,4107.8203125,4122.9487304688,4093.3332519531,4127.0512695313,33025,0.0,0.0,1.0,11.0
16.671875,66,4094.4870605469,4090.5129394531,4097.9487304688,4102.5639648438,4108.0771484375,4100.1284179688,4108.205078125,4108.4614257813,4110.0,4093.205078125,4107.3076171875,4119.7436523438,4094.3588867188,4136.794921875,33025,0.0,0.0,1.0,11.0
16.6796875,66,4091.5385742188,4090.3845214844,4097.0512695313,4103.58984375,4108.58984375,4107.6923828125,4111.5385742188,4110.8974609375,4110.2563476563,4091.2819824219,4111.1538085938,4120.1284179688,4095.2563476563,4138.3334960938,33025,0.0,0.0,1.0,11.0
16.6875,66,4092.1794433594,4087.5642089844,4103.205078125,4108.7177734375,4105.384765625,4104.615234375,4113.205078125,4108.9741210938,4114.2309570313,4092.3076171875,4123.0771484375,4130.7690429688,4099.1025390625,4140.6411132813,33025,0.0,0.0,1.0,11.0
16.6953125,66,4096.1538085938,4094.3588867188,4111.5385742188,4111.2822265625,4108.3334960938,4106.0258789063,4121.5385742188,4108.58984375,4119.4873046875,4095.8974609375,4125.7690429688,4128.8461914063,4096.9228515625,4138.9741210938,33025,0.0,0.0,1.0,11.0
16.703125,66,4098.3334960938,4099.8715820313,4111.0258789063,4109.4873046875,4111.1538085938,4110.0,4126.794921875,4112.8203125,4121.6665039063,4097.1796875,4123.0771484375,4123.58984375,4101.0258789063,4144.1025390625,33025,0.0,0.0,1.0,11.0
16.7109375,66,4098.7177734375,4094.6154785156,4106.1538085938,4108.205078125,4102.9487304688,4107.1796875,4122.5639648438,4113.205078125,4119.2309570313,4096.6665039063,4123.58984375,4128.3334960938,4105.384765625,4155.0,33025,0.0,0.0,1.0,11.0
16.71875,66,4100.1284179688,4087.8205566406,4101.794921875,4108.7177734375,4094.3588867188,4106.6665039063,4121.1538085938,4108.9741210938,4110.1284179688,4093.4614257813,4117.3076171875,4127.9487304688,4095.0,4150.8974609375,33025,0.0,0.0,1.0,11.0
16.7265625,66,4105.2563476563,4088.8461914063,4102.1796875,4109.1025390625,4099.8715820313,4109.7436523438,4125.6411132813,4109.3588867188,4103.8461914063,4089.4870605469,4107.0512695313,4122.3076171875,4087.9487304688,4137.8203125,33025,0.0,0.0,1.0,11.0
16.734375,66,4106.1538085938,4093.8461914063,4102.4360351563,4106.6665039063,4110.6411132813,4103.3334960938,4125.0,4111.9228515625,4108.205078125,4090.2563476563,4107.0512695313,4121.6665039063,4093.58984375,4139.3588867188,33025,0.0,0.0,1.0,11.0
16.7421875,66,4103.7177734375,4094.6154785156,4105.5126953125,4106.1538085938,4106.0258789063,4092.6923828125,4114.615234375,4107.8203125,4110.0,4091.794921875,4111.5385742188,4122.3076171875,4095.7692871094,4146.1538085938,33025,0.0,0.0,1.0,11.0
16.75,67,4102.9487304688,4091.2819824219,4103.9741210938,4105.5126953125,4097.8203125,4094.1025390625,4106.6665039063,4104.615234375,4102.3076171875,4089.4870605469,4109.4873046875,4119.3588867188,4091.41015625,4141.2822265625,33025,0.0,0.0,1.0,11.0
16.7578125,67,4099.8715820313,4088.3332519531,4100.5126953125,4104.8715820313,4102.6923828125,4103.4614257813,4113.4614257813,4106.9228515625,4098.8461914063,4088.9743652344,4105.6411132813,4118.3334960938,4090.3845214844,4136.9228515625,33025,0.0,0.0,1.0,11.0
16.765625,67,4100.384765625,4092.3076171875,4109.4873046875,4110.6411132813,4111.0258789063,4107.3076171875,4125.2563476563,4110.0,4105.5126953125,4091.9230957031,4108.7177734375,4123.4614257813,4094.2307128906,4139.7436523438,33025,0.0,0.0,1.0,11.0
16.7734375,67,4104.8715820313,4097.4360351563,4107.3076171875,4113.58984375,4110.1284179688,4106.794921875,4127.6923828125,4111.794921875,4109.1025390625,4092.8205566406,4112.3076171875,4118.9741210938,4095.1281738281,4141.5385742188,33025,0.0,0.0,1.0,11.0
16.78125,67,4106.6665039063,4093.4614257813,4095.3845214844,4108.7177734375,4103.3334960938,4106.794921875,4123.3334960938,4111.6665039063,4099.8715820313,4091.0256347656,4106.5385742188,4105.5126953125,4091.5385742188,4139.8715820313,33025,0.0,0.0,1.0,11.0
16.7890625,67,4102.8203125,4092.3076171875,4103.4614257813,4109.1025390625,4104.1025390625,4107.1796875,4118.3334960938,4110.1284179688,4098.8461914063,4090.7692871094,4107.0512695313,4110.1284179688,4096.2822265625,4137.8203125,33025,0.0,0.0,1.0,11.0
16.796875,67,4101.2822265625,4097.5639648438,4117.3076171875,4113.8461914063,4110.2563476563,4106.0258789063,4114.4873046875,4115.1284179688,4118.3334960938,4099.4873046875,4123.3334960938,4126.794921875,4108.8461914063,4140.0,33025,0.0,0.0,1.0,11.0
16.8046875,67,4103.3334960938,4094.4870605469,4112.9487304688,4110.6411132813,4107.9487304688,4103.9741210938,4113.3334960938,4117.9487304688,4123.4614257813,4105.0,4126.0258789063,4125.5126953125,4109.1025390625,4141.6665039063,33025,0.0,0.0,1.0,11.0
16.8125,67,4102.5639648438,4089.7436523438,4103.9741210938,4105.5126953125,4103.4614257813,4103.4614257813,4116.0258789063,4112.1796875,4107.3076171875,4096.5385742188,4110.6411132813,4117.0512695313,4102.5639648438,4140.8974609375,33025,0.0,0.0,1.0,11.0
16.8203125,67,4105.6411132813,4093.9743652344,4104.8715820313,4106.1538085938,4105.5126953125,4106.5385742188,4121.41015625,4114.7436523438,4103.3334960938,4091.1538085938,4106.41015625,4121.5385742188,4105.0,4140.8974609375,33025,0.0,0.0,1.0,11.0
16.828125,67,4109.8715820313,4096.2822265625,4110.8974609375,4109.615234375,4109.7436523438,4111.5385742188,4124.615234375,4119.4873046875,4108.3334960938,4095.0,4112.0512695313,4123.7177734375,4107.3076171875,4139.615234375,33025,0.0,0.0,1.0,11.0
27.734375,110,4107.0512695313,4119.8715820313,4128.205078125,4126.2822265625,4121.9228515625,4124.1025390625,4108.0771484375,4109.2309570313,4117.9487304688,4122.1796875,4127.1796875,4120.8974609375,4130.1284179688,4149.2309570313,33026,27.7378317486,0.0,1.0,
27.7421875,110,4112.6923828125,4118.7177734375,4120.1284179688,4120.2563476563,4112.8203125,4123.205078125,4104.615234375,4104.4873046875,4105.7690429688,4117.9487304688,4126.0258789063,4116.1538085938,4127.0512695313,4145.0,33026,0.0,0.0,2.0,
27.75,111,4127.3076171875,4132.1796875,4131.794921875,4126.41015625,4106.0258789063,4120.384765625,4105.2563476563,4108.58984375,4117.1796875,4123.7177734375,4135.0,4132.8203125,4134.7436523438,4155.384765625,33026,0.0,0.0,2.0,
27.7578125,111,4126.0258789063,4137.9487304688,4143.4614257813,4125.1284179688,4112.5639648438,4118.58984375,4107.1796875,4119.8715820313,4124.8715820313,4125.8974609375,4137.8203125,4141.1538085938,4136.0258789063,4161.1538085938,33026,0.0,0.0,2.0,
27.765625,111,4120.8974609375,4125.8974609375,4141.6665039063,4126.794921875,4118.58984375,4122.3076171875,4108.9741210938,4122.9487304688,4116.2822265625,4121.41015625,4128.3334960938,4128.8461914063,4124.615234375,4152.3076171875,33026,0.0,0.0,2.0,
27.7734375,111,4128.205078125,4124.7436523438,4144.4873046875,4137.5639648438,4108.9741210938,4124.3588867188,4109.2309570313,4114.8715820313,4116.6665039063,4119.2309570313,4123.7177734375,4125.6411132813,4122.0512695313,4151.2822265625,33026,0.0,0.0,2.0,
27.78125,111,4129.1025390625,4132.8203125,4149.1025390625,4135.8974609375,4103.205078125,4119.8715820313,4106.6665039063,4109.3588867188,4120.8974609375,4117.1796875,4128.3334960938,4131.9228515625,4129.615234375,4159.615234375,33026,0.0,0.0,2.0,
27.7890625,111,4122.3076171875,4128.205078125,4145.0,4126.6665039063,4113.0771484375,4118.205078125,4106.5385742188,4109.1025390625,4110.8974609375,4109.4873046875,4123.9741210938,4119.4873046875,4126.1538085938,4157.1796875,33026,0.0,0.0,2.0,
27.796875,111,4116.2822265625,4123.205078125,4136.41015625,4125.384765625,4121.41015625,4122.3076171875,4107.8203125,4107.9487304688,4102.6923828125,4105.384765625,4112.5639648438,4102.8203125,4119.4873046875,4144.8715820313,33026,0.0,0.0,2.0,
27.8046875,111,4115.7690429688,4126.6665039063,4129.7436523438,4127.3076171875,4122.0512695313,4121.2822265625,4104.4873046875,4106.794921875,4105.2563476563,4107.8203125,4115.5126953125,4112.4360351563,4121.0258789063,4145.1284179688,33026,0.0,0.0,2.0,
27.8125,111,4117.6923828125,4127.1796875,4130.384765625,4124.7436523438,4119.8715820313,4116.1538085938,4099.7436523438,4107.0512695313,4102.0512695313,4107.1796875,4122.6923828125,4125.384765625,4124.4873046875,4152.0512695313,33026,0.0,0.0,2.0,
27.8203125,111,4113.0771484375,4126.6665039063,4132.4360351563,4122.1796875,4113.4614257813,4109.7436523438,4095.6411132813,4103.4614257813,4094.4870605469,4103.205078125,4114.3588867188,4117.3076171875,4121.0258789063,4142.4360351563,33026,0.0,0.0,2.0,
27.828125,111,4106.0258789063,4125.7690429688,4133.8461914063,4124.2309570313,4106.1538085938,4104.4873046875,4090.6411132813,4097.4360351563,4092.3076171875,4103.9741210938,4104.615234375,4108.0771484375,4111.2822265625,4132.4360351563,33026,0.0,0.0,2.0,
27.8359375,111,4102.6923828125,4122.5639648438,4130.6411132813,4122.3076171875,4105.8974609375,4111.41015625,4094.6154785156,4095.8974609375,4094.3588867188,4105.1284179688,4106.1538085938,4108.7177734375,4111.6665039063,4137.0512695313,33026,0.0,0.0,2.0,
27.84375,111,4102.6923828125,4122.5639648438,4130.6411132813,4122.3076171875,4105.8974609375,4111.41015625,4094.6154785156,4095.8974609375,4094.3588867188,4105.1284179688,4106.1538085938,4108.7177734375,4111.6665039063,4137.0512695313,33026,0.0,0.0,2.0,
27.8515625,111,4108.0771484375,4121.1538085938,4124.4873046875,4116.5385742188,4109.2309570313,4121.2822265625,4106.41015625,4102.0512695313,4101.0258789063,4106.5385742188,4108.3334960938,4105.384765625,4120.6411132813,4138.4614257813,33026,0.0,0.0,2.0,
27.859375,111,4115.1284179688,4121.2822265625,4129.2309570313,4114.2309570313,4106.794921875,4117.5639648438,4111.1538085938,4110.6411132813,4115.2563476563,4114.8715820313,4114.4873046875,4109.3588867188,4123.9741210938,4140.0,33026,0.0,0.0,2.0,
27.8671875,111,4117.0512695313,4122.9487304688,4141.0258789063,4121.1538085938,4105.8974609375,4111.9228515625,4108.7177734375,4118.9741210938,4127.8203125,4126.0258789063,4129.615234375,4129.4873046875,4126.1538085938,4153.205078125,33026,0.0,0.0,2.0,
27.875,111,4118.8461914063,4124.4873046875,4140.6411132813,4125.7690429688,4110.1284179688,4117.0512695313,4110.7690429688,4121.5385742188,4122.4360351563,4124.7436523438,4128.58984375,4129.2309570313,4129.3588867188,4153.4614257813,33026,0.0,0.0,2.0,
27.8828125,111,4115.5126953125,4121.41015625,4128.4614257813,4116.1538085938,4112.8203125,4120.384765625,4113.0771484375,4113.8461914063,4107.4360351563,4111.5385742188,4112.4360351563,4112.8203125,4123.58984375,4138.3334960938,33026,0.0,0.0,2.0,
27.890625,111,4109.8715820313,4120.384765625,4125.384765625,4112.4360351563,4112.3076171875,4118.4614257813,4109.3588867188,4110.1284179688,4110.2563476563,4109.4873046875,4110.7690429688,4118.205078125,4118.0771484375,4135.0,33026,0.0,0.0,2.0,
27.8984375,111,4113.7177734375,4124.615234375,4130.384765625,4124.3588867188,4111.794921875,4120.2563476563,4108.205078125,4117.5639648438,4120.6411132813,4118.0771484375,4121.5385742188,4131.0258789063,4123.58984375,4144.8715820313,33026,0.0,0.0,2.0,
27.90625,111,4117.5639648438,4121.5385742188,4126.6665039063,4123.0771484375,4111.9228515625,4121.1538085938,4111.6665039063,4123.58984375,4117.8203125,4116.41015625,4123.4614257813,4127.6923828125,4127.4360351563,4152.5639648438,33026,0.0,0.0,2.0,
27.9140625,111,4113.205078125,4109.4873046875,4122.5639648438,4106.2822265625,4108.7177734375,4121.2822265625,4115.8974609375,4121.2822265625,4112.9487304688,4109.7436523438,4116.41015625,4122.4360351563,4121.5385742188,4152.3076171875,33026,0.0,0.0,2.0,
27.921875,111,4114.615234375,4107.8203125,4130.2563476563,4106.6665039063,4108.0771484375,4122.5639648438,4119.615234375,4120.8974609375,4118.7177734375,4116.41015625,4120.7690429688,4131.794921875,4118.58984375,4153.3334960938,33026,0.0,0.0,2.0,
27.9296875,111,4120.6411132813,4115.5126953125,4137.6923828125,4115.5126953125,4109.7436523438,4123.3334960938,4122.1796875,4126.41015625,4125.2563476563,4122.3076171875,4127.0512695313,4141.794921875,4122.6923828125,4158.0771484375,33026,0.0,0.0,2.0,
27.9375,111,4119.1025390625,4111.2822265625,4131.1538085938,4107.8203125,4109.3588867188,4122.9487304688,4118.58984375,4123.0771484375,4120.8974609375,4112.0512695313,4117.4360351563,4135.1284179688,4118.9741210938,4152.5639648438,33026,0.0,0.0,2.0,
27.9453125,111,4113.0771484375,4104.1025390625,4123.3334960938,4102.5639648438,4107.5639648438,4118.58984375,4108.7177734375,4107.3076171875,4110.384765625,4103.4614257813,4106.794921875,4123.7177734375,4107.1796875,4139.615234375,33026,0.0,0.0,2.0,
27.953125,111,4112.8203125,4112.5639648438,4127.9487304688,4113.9741210938,4106.5385742188,4111.1538085938,4098.8461914063,4098.4614257813,4102.0512695313,4105.1284179688,4106.9228515625,4119.8715820313,4105.2563476563,4134.7436523438,33026,0.0,0.0,2.0,
27.9609375,111,4115.7690429688,4123.3334960938,4133.8461914063,4130.0,4112.3076171875,4109.3588867188,4094.2307128906,4102.9487304688,4107.1796875,4108.58984375,4109.1025390625,4116.2822265625,4112.3076171875,4137.3076171875,33026,0.0,0.0,2.0,
27.96875,111,4118.58984375,4129.2309570313,4138.205078125,4139.7436523438,4123.0771484375,4113.9741210938,4096.41015625,4106.2822265625,4121.0258789063,4110.384765625,4107.6923828125,4112.5639648438,4114.1025390625,4138.7177734375,33026,0.0,0.0,2.0,
27.9765625,111,4118.7177734375,4135.7690429688,4143.7177734375,4143.58984375,4122.3076171875,4115.2563476563,4096.9228515625,4103.9741210938,4121.5385742188,4110.0,4100.384765625,4109.4873046875,4107.4360351563,4133.0771484375,33026,0.0,0.0,2.0,
27.984375,111,4111.6665039063,4136.9228515625,4139.4873046875,4147.0512695313,4110.8974609375,4113.0771484375,4097.3076171875,4098.9741210938,4110.384765625,4106.0258789063,4083.8461914063,4097.9487304688,4097.8203125,4121.9228515625,33026,0.0,0.0,2.0,12.0
27.9921875,111,4110.5126953125,4136.9228515625,4138.9741210938,4153.8461914063,4114.3588867188,4116.9228515625,4101.0258789063,4094.2307128906,4108.8461914063,4099.8715820313,4074.7436523438,4090.5129394531,4094.3588867188,4118.205078125,33026,0.0,0.0,2.0,13.0
28.0,112,4115.2563476563,4139.7436523438,4147.8203125,4155.384765625,4121.5385742188,4119.8715820313,4101.0258789063,4092.5642089844,4112.6923828125,4093.9743652344,4074.3588867188,4095.6411132813,4092.6923828125,4120.7690429688,33026,0.0,0.0,2.0,13.0
28.0078125,112,4110.7690429688,4133.205078125,4145.2563476563,4147.9487304688,4108.7177734375,4114.8715820313,4093.7180175781,4089.6154785156,4100.5126953125,4090.3845214844,4062.1794433594,4093.205078125,4084.3588867188,4111.1538085938,33026,0.0,0.0,2.0,13.0
28.015625,112,4108.4614257813,4129.2309570313,4142.9487304688,4146.794921875,4105.1284179688,4109.7436523438,4090.5129394531,4085.8974609375,4090.1281738281,4089.4870605469,4056.2819824219,4086.41015625,4081.41015625,4100.6411132813,33026,0.0,0.0,2.0,13.0
28.0234375,112,4115.384765625,4140.384765625,4151.6665039063,4156.2822265625,4123.205078125,4112.8203125,4095.7692871094,4090.6411132813,4102.1796875,4092.1794433594,4072.0512695313,4098.205078125,4091.1538085938,4112.9487304688,33026,0.0,0.0,2.0,13.0
28.03125,112,4118.0771484375,4146.9228515625,4154.4873046875,4160.1284179688,4121.6665039063,4113.3334960938,4097.6923828125,4095.7692871094,4108.3334960938,4096.0258789063,4080.6411132813,4111.9228515625,4096.41015625,4125.7690429688,33026,0.0,0.0,2.0,13.0
28.0390625,112,4112.6923828125,4139.3588867188,4148.0771484375,4153.0771484375,4100.5126953125,4104.7436523438,4091.6667480469,4088.0769042969,4094.2307128906,4089.6154785156,4064.7436523438,4103.0771484375,4084.4870605469,4113.7177734375,33026,0.0,0.0,2.0,13.0
28.046875,112,4109.615234375,4137.1796875,4145.8974609375,4150.8974609375,4106.2822265625,4108.3334960938,4090.2563476563,4081.5385742188,4086.1538085938,4079.3588867188,4051.794921875,4089.8718261719,4073.8461914063,4097.4360351563,33026,0.0,0.0,2.0,13.0
28.0546875,112,4113.4614257813,4141.1538085938,4145.1284179688,4151.794921875,4126.41015625,4120.1284179688,4099.7436523438,4087.8205566406,4094.1025390625,4079.4870605469,4058.3332519531,4090.5129394531,4076.2819824219,4099.2309570313,33026,0.0,0.0,2.0,13.0
28.0625,112,4113.58984375,4135.1284179688,4140.5126953125,4144.4873046875,4123.58984375,4119.4873046875,4107.3076171875,4093.7180175781,4097.3076171875,4083.58984375,4061.0256347656,4097.1796875,4078.7180175781,4102.4360351563,33026,0.0,0.0,2.0,13.0
28.0703125,112,4111.6665039063,4126.1538085938,4137.4360351563,4138.8461914063,4115.6411132813,4114.2309570313,4107.4360351563,4091.1538085938,4095.5129394531,4084.8718261719,4056.0256347656,4110.0,4076.2819824219,4102.8203125,33026,0.0,0.0,2.0,13.0
28.078125,112,4113.7177734375,4126.41015625,4135.6411132813,4140.1284179688,4120.6411132813,4119.8715820313,4107.8203125,4093.205078125,4103.0771484375,4088.7180175781,4065.7692871094,4123.0771484375,4083.7180175781,4112.9487304688,33026,0.0,0.0,2.0,13.0
28.0859375,112,4114.4873046875,4128.205078125,4138.0771484375,4141.0258789063,4118.205078125,4122.9487304688,4104.3588867188,4096.41015625,4106.2822265625,4092.8205566406,4074.3588867188,4112.0512695313,4092.5642089844,4115.5126953125,33026,0.0,0.0,2.0,13.0
28.09375,112,4114.7436523438,4124.1025390625,4142.0512695313,4139.2309570313,4112.5639648438,4114.4873046875,4095.6411132813,4084.7436523438,4095.8974609375,4089.7436523438,4062.6923828125,4089.2307128906,4083.205078125,4105.2563476563,33026,0.0,0.0,2.0,13.0
28.1015625,112,4115.2563476563,4130.6411132813,4141.0258789063,4141.1538085938,4118.7177734375,4112.6923828125,4091.41015625,4075.5129394531,4090.1281738281,4084.3588867188,4055.7692871094,4088.3332519531,4078.205078125,4106.5385742188,33026,0.0,0.0,2.0,13.0
28.109375,112,4115.2563476563,4138.0771484375,4136.41015625,4143.8461914063,4118.4614257813,4115.5126953125,4090.7692871094,4082.1794433594,4091.794921875,4081.794921875,4062.5642089844,4096.794921875,4085.7692871094,4116.5385742188,33026,0.0,0.0,2.0,13.0
28.1171875,112,4116.5385742188,4127.9487304688,4134.2309570313,4142.5639648438,4111.1538085938,4111.5385742188,4089.7436523438,4087.8205566406,4093.3332519531,4084.7436523438,4060.7692871094,4092.9487304688,4084.7436523438,4113.3334960938,33026,0.0,0.0,2.0,13.0
28.125,112,4115.7690429688,4119.4873046875,4132.8203125,4136.0258789063,4106.41015625,4106.2822265625,4090.3845214844,4089.4870605469,4097.9487304688,4090.1281738281,4058.0769042969,4089.3588867188,4080.8974609375,4108.0771484375,33026,0.0,0.0,2.0,13.0
28.1328125,112,4115.5126953125,4120.6411132813,4131.1538085938,4129.7436523438,4098.205078125,4106.1538085938,4092.6923828125,4093.205078125,4100.6411132813,4090.8974609375,4063.8461914063,4092.9487304688,4085.8974609375,4115.7690429688,33026,0.0,0.0,2.0,13.0
28.140625,112,4117.8203125,4117.0512695313,4133.4614257813,4131.1538085938,4098.8461914063,4112.8203125,4098.3334960938,4095.1281738281,4100.5126953125,4091.41015625,4067.0512695313,4096.2822265625,4091.794921875,4123.7177734375,33026,0.0,0.0,2.0,13.0
28.1484375,112,4119.7436523438,4108.9741210938,4136.6665039063,4132.4360351563,4112.5639648438,4116.6665039063,4107.6923828125,4095.2563476563,4107.3076171875,4093.4614257813,4073.205078125,4099.1025390625,4094.7436523438,4123.8461914063,33026,0.0,0.0,2.0,13.0
28.15625,112,4115.5126953125,4105.5126953125,4129.615234375,4125.0,4110.2563476563,4111.2822265625,4108.8461914063,4095.6411132813,4108.4614257813,4093.0769042969,4072.8205566406,4094.3588867188,4092.6923828125,4115.7690429688,33026,0.0,0.0,2.0,13.0
28.1640625,112,4109.3588867188,4106.41015625,4118.7177734375,4120.2563476563,4099.7436523438,4105.1284179688,4097.4360351563,4094.7436523438,4097.6923828125,4089.2307128906,4061.41015625,4086.1538085938,4085.0,4107.4360351563,33026,0.0,0.0,2.0,13.0
28.171875,112,4111.5385742188,4110.7690429688,4123.7177734375,4128.4614257813,4105.8974609375,4107.4360351563,4089.7436523438,4093.205078125,4092.6923828125,4088.8461914063,4060.7692871094,4093.205078125,4081.794921875,4107.1796875,33026,0.0,0.0,2.0,13.0
28.1796875,112,4107.9487304688,4111.794921875,4127.4360351563,4131.2822265625,4111.41015625,4109.3588867188,4092.9487304688,4088.7180175781,4094.4870605469,4084.4870605469,4055.1281738281,4090.7692871094,4076.0256347656,4103.205078125,33026,0.0,0.0,2.0,13.0
28.1875,112,4100.6411132813,4107.8203125,4112.8203125,4122.9487304688,4106.1538085938,4107.4360351563,4095.2563476563,4082.4357910156,4090.5129394531,4072.8205566406,4032.9487304688,4067.1794433594,4063.7180175781,4090.0,33026,0.0,0.0,2.0,13.0
28.1953125,112,4104.7436523438,4106.0258789063,4107.9487304688,4121.6665039063,4104.8715820313,4106.0258789063,4091.6667480469,4083.205078125,4086.0256347656,4074.4870605469,4032.8205566406,4064.2307128906,4067.9487304688,4085.1281738281,33026,0.0,0.0,2.0,13.0
28.203125,112,4109.7436523438,4107.1796875,4117.8203125,4124.1025390625,4109.1025390625,4106.9228515625,4094.4870605469,4089.6154785156,4096.0258789063,4089.8718261719,4062.9487304688,4088.8461914063,4085.5129394531,4098.205078125,33026,0.0,0.0,2.0,13.0
28.2109375,112,4107.6923828125,4108.9741210938,4122.0512695313,4118.7177734375,4109.3588867188,4111.0258789063,4100.1284179688,4093.0769042969,4106.0258789063,4095.1281738281,4081.6667480469,4104.8715820313,4094.7436523438,4108.58984375,33026,0.0,0.0,2.0,13.0
28.21875,112,4102.1796875,4103.8461914063,4118.4614257813,4111.9228515625,4106.41015625,4111.2822265625,4095.5129394531,4093.205078125,4101.41015625,4088.7180175781,4085.3845214844,4107.1796875,4099.4873046875,4109.4873046875,33026,0.0,0.0,2.0,13.0
28.2265625,112,4099.4873046875,4094.1025390625,4110.6411132813,4109.1025390625,4104.4873046875,4106.1538085938,4088.58984375,4090.7692871094,4098.8461914063,4093.7180175781,4095.5129394531,4110.6411132813,4105.7690429688,4112.5639648438,33026,0.0,0.0,2.0,13.0
28.234375,112,4099.2309570313,4089.4870605469,4103.7177734375,4099.3588867188,4104.3588867188,4105.8974609375,4090.6411132813,4092.1794433594,4106.6665039063,4102.5639648438,4101.1538085938,4110.384765625,4105.0,4113.4614257813,33026,0.0,0.0,2.0,13.0
28.2421875,112,4101.1538085938,4091.0256347656,4100.8974609375,4090.3845214844,4105.0,4111.41015625,4095.8974609375,4101.5385742188,4109.1025390625,4099.2309570313,4095.6411132813,4108.4614257813,4103.8461914063,4112.4360351563,33026,0.0,0.0,2.0,14.0
28.25,113,4107.0512695313,4094.2307128906,4100.1284179688,4095.1281738281,4105.2563476563,4112.1796875,4097.0512695313,4109.2309570313,4105.2563476563,4097.8203125,4096.41015625,4109.2309570313,4105.6411132813,4119.4873046875,33026,0.0,0.0,2.0,14.0
28.2578125,113,4105.5126953125,4093.8461914063,4099.3588867188,4097.4360351563,4106.2822265625,4110.384765625,4094.2307128906,4106.5385742188,4107.8203125,4104.2309570313,4103.7177734375,4107.4360351563,4104.4873046875,4124.1025390625,33026,0.0,0.0,2.0,14.0
28.265625,113,4103.3334960938,4091.5385742188,4103.3334960938,4094.4870605469,4106.5385742188,4106.6665039063,4091.6667480469,4106.0258789063,4115.1284179688,4109.3588867188,4108.8461914063,4115.0,4112.3076171875,4122.6923828125,33026,0.0,0.0,2.0,14.0
28.2734375,113,4112.8203125,4095.0,4111.2822265625,4100.6411132813,4105.0,4105.1284179688,4097.4360351563,4116.9228515625,4122.9487304688,4112.1796875,4115.8974609375,4129.2309570313,4124.8715820313,4133.205078125,33026,0.0,0.0,2.0,14.0
28.28125,113,4115.8974609375,4097.4360351563,4110.5126953125,4105.1284179688,4106.0258789063,4118.0771484375,4111.1538085938,4122.6923828125,4125.7690429688,4113.8461914063,4119.4873046875,4126.1538085938,4122.9487304688,4138.8461914063,33026,0.0,0.0,2.0,14.0
28.2890625,113,4108.7177734375,4098.7177734375,4104.2309570313,4104.1025390625,4109.1025390625,4124.2309570313,4113.3334960938,4115.7690429688,4121.1538085938,4109.8715820313,4111.6665039063,4109.7436523438,4117.9487304688,4128.3334960938,33026,0.0,0.0,2.0,14.0
28.296875,113,4104.8715820313,4100.6411132813,4102.6923828125,4108.58984375,4108.7177734375,4110.8974609375,4099.2309570313,4106.41015625,4113.9741210938,4105.384765625,4103.9741210938,4103.7177734375,4116.6665039063,4120.384765625,33026,0.0,0.0,2.0,14.0
28.3046875,113,4103.0771484375,4095.7692871094,4099.615234375,4111.2822265625,4106.5385742188,4103.9741210938,4093.3332519531,4102.0512695313,4112.1796875,4106.41015625,4105.6411132813,4100.0,4110.2563476563,4115.2563476563,33026,0.0,0.0,2.0,14.0
28.3125,113,4101.2822265625,4093.3332519531,4094.6154785156,4105.7690429688,4108.58984375,4111.0258789063,4099.7436523438,4104.2309570313,4118.58984375,4106.9228515625,4105.384765625,4094.2307128906,4106.41015625,4112.3076171875,33026,0.0,0.0,2.0,14.0
28.3203125,113,4103.4614257813,4103.8461914063,4096.9228515625,4103.7177734375,4106.1538085938,4109.4873046875,4096.794921875,4107.5639648438,4120.5126953125,4107.4360351563,4103.4614257813,4098.9741210938,4109.615234375,4118.4614257813,33026,0.0,0.0,2.0,14.0
28.328125,113,4109.3588867188,4110.8974609375,4106.0258789063,4107.1796875,4098.8461914063,4102.9487304688,4090.7692871094,4106.9228515625,4117.8203125,4107.6923828125,4106.41015625,4110.8974609375,4108.8461914063,4124.4873046875,33026,0.0,0.0,2.0,14.0
28.3359375,113,4111.41015625,4106.5385742188,4108.4614257813,4107.9487304688,4102.9487304688,4107.4360351563,4092.8205566406,4105.6411132813,4119.4873046875,4105.8974609375,4107.1796875,4117.6923828125,4109.615234375,4123.7177734375,33026,0.0,0.0,2.0,14.0
28.34375,113,4110.5126953125,4107.6923828125,4101.1538085938,4105.8974609375,4112.4360351563,4111.5385742188,4093.9743652344,4108.205078125,4122.3076171875,4107.0512695313,4105.6411132813,4119.2309570313,4115.2563476563,4125.7690429688,33026,0.0,0.0,2.0,14.0
28.3515625,113,4110.7690429688,4107.1796875,4097.0512695313,4102.5639648438,4110.6411132813,4111.0258789063,4092.1794433594,4108.58984375,4121.6665039063,4109.8715820313,4105.2563476563,4115.7690429688,4113.58984375,4127.1796875,33026,0.0,0.0,2.0,14.0
28.359375,113,4107.6923828125,4095.7692871094,4096.794921875,4098.7177734375,4105.7690429688,4109.3588867188,4092.3076171875,4107.0512695313,4122.4360351563,4109.3588867188,4106.9228515625,4109.4873046875,4110.2563476563,4122.4360351563,33026,0.0,0.0,2.0,14.0
28.3671875,113,4104.1025390625,4088.58984375,4093.9743652344,4093.58984375,4107.8203125,4106.5385742188,4091.9230957031,4108.7177734375,4124.4873046875,4110.7690429688,4109.2309570313,4107.1796875,4115.7690429688,4122.5639648438,33026,0.0,0.0,2.0,14.0
28.375,113,4105.5126953125,4095.5129394531,4094.4870605469,4095.0,4107.8203125,4105.1284179688,4092.8205566406,4108.4614257813,4121.41015625,4113.205078125,4111.2822265625,4112.0512695313,4120.8974609375,4125.2563476563,33026,0.0,0.0,2.0,14.0
28.3828125,113,4108.3334960938,4106.794921875,4096.5385742188,4101.0258789063,4106.0258789063,4105.0,4091.9230957031,4106.41015625,4115.2563476563,4110.0,4110.6411132813,4116.1538085938,4116.794921875,4126.1538085938,33026,0.0,0.0,2.0,14.0
28.390625,113,4105.8974609375,4107.5639648438,4095.7692871094,4101.0258789063,4107.1796875,4104.8715820313,4087.9487304688,4104.7436523438,4108.205078125,4105.0,4106.794921875,4110.1284179688,4108.205078125,4123.8461914063,33026,0.0,0.0,2.0,14.0
28.3984375,113,4100.384765625,4103.3334960938,4096.41015625,4100.2563476563,4106.41015625,4105.0,4089.2307128906,4101.2822265625,4105.8974609375,4105.6411132813,4107.0512695313,4109.1025390625,4110.0,4120.7690429688,33026,0.0,0.0,2.0,14.0
28.40625,113,4103.4614257813,4105.1284179688,4098.4614257813,4103.4614257813,4105.1284179688,4105.384765625,4094.1025390625,4100.8974609375,4112.0512695313,4109.615234375,4116.41015625,4119.615234375,4120.1284179688,4128.0771484375,33026,0.0,0.0,2.0,14.0
28.4140625,113,4115.1284179688,4108.3334960938,4101.9228515625,4106.9228515625,4105.6411132813,4104.615234375,4093.3332519531,4105.7690429688,4118.4614257813,4109.4873046875,4128.4614257813,4130.2563476563,4125.2563476563,4147.1796875,33026,0.0,0.0,2.0,14.0
28.421875,113,4116.5385742188,4103.4614257813,4104.1025390625,4104.4873046875,4104.3588867188,4106.0258789063,4095.3845214844,4108.9741210938,4122.1796875,4111.0258789063,4133.0771484375,4128.58984375,4124.8715820313,4155.0,33026,0.0,0.0,2.0,14.0
28.4296875,113,4110.2563476563,4100.0,4104.615234375,4099.1025390625,4104.615234375,4110.0,4103.7177734375,4108.4614257813,4123.9741210938,4118.58984375,4127.3076171875,4112.1796875,4123.8461914063,4142.6923828125,33026,0.0,0.0,2.0,14.0
28.4375,113,4110.1284179688,4101.5385742188,4104.2309570313,4100.1284179688,4110.2563476563,4111.0258789063,4105.1284179688,4107.9487304688,4124.7436523438,4121.2822265625,4123.7177734375,4106.6665039063,4121.5385742188,4135.5126953125,33026,0.0,0.0,2.0,14.0
28.4453125,113,4113.3334960938,4098.58984375,4103.7177734375,4103.8461914063,4106.6665039063,4107.3076171875,4096.0258789063,4110.384765625,4123.7177734375,4115.6411132813,4127.9487304688,4120.384765625,4121.9228515625,4142.4360351563,33026,0.0,0.0,2.0,14.0
