AF3,F7,F3,F5,T7,P7,O1,O2,P8,T8,FC6,F4,F8,AF4
0.0,0.0,0.2168611918275899,0.2808037101061477,0.0,0.0,0.0,0.0,0.0,0.0,0.25759617669611523,0.0,0.0,0.0
0.3242980295884193,0.3603906830376872,0.3508390613651285,0.4912948363597116,0.3542001745011582,0.3470911133843767,0.3435727784993538,0.3099623303276036,0.32981205599236946,0.34131680134443865,0.4312020750626683,0.31080335306519424,0.32900741117225374,0.3060355453628368
0.8987011164302865,0.875867255164703,0.5733279294092051,0.8195460105180676,0.9618532146166141,0.9068609438662238,0.9430645500035764,0.9164380923280271,0.9105776427238905,0.9253004738542667,0.7123955609805122,0.7808532430795719,0.8994363438655951,0.8974534871761051
0.7839002380334212,0.8015351724395635,0.5285794633408853,0.7544729613876726,0.7824410048144116,0.771896743965251,0.8179887200670374,0.7798879896976851,0.8146443725531973,0.8111434968189697,0.6371607252719127,0.735426042113277,0.7338152366936666,0.7617311121542897
0.5080587376829804,0.5202492614917341,0.41875737171347255,0.6035430135644194,0.5685623429141854,0.5472713771978397,0.5548404367048769,0.5248565285664099,0.524698194980192,0.5328462680228994,0.5098137543469411,0.49698858963297315,0.5139692034036318,0.49037601256915453
0.5930824917917513,0.6116620616625307,0.4509237091541632,0.6270538406992529,0.6151221690961275,0.584017751932783,0.5917230795815083,0.5814606582867562,0.5986016111902951,0.6007036915872905,0.5647075175405758,0.5414255281497585,0.5818268395568837,0.5670138283094845
0.6745038063866036,0.6482030864730972,0.4883622278335366,0.6753454254939001,0.6772705183963179,0.675777258794188,0.7257612394755643,0.6773688622015713,0.6951937220510067,0.707684746663937,0.5893774517791049,0.578075027441461,0.6547792541344244,0.6708368288840477
0.6738760115467811,0.7069399510842639,0.4851397178512174,0.7060155399960163,0.7385371153049847,0.7110492111472065,0.7170015247908648,0.699260828868603,0.6962026673995543,0.7019610828461506,0.5936665818365113,0.6151839657045309,0.6710533252504584,0.6693474204053281
0.6219266105258224,0.6337482005398065,0.46424298680445575,0.6661404474655401,0.6621777096730096,0.5976443491372497,0.6319312858620122,0.613390306371742,0.6411597287644133,0.6406553487569884,0.572925143407241,0.5757031152958499,0.601331716975797,0.582949680424861
0.6073091139636071,0.5881712815063647,0.45387741689609173,0.6348707214199454,0.6241756601220283,0.6544691791882301,0.6733952584498112,0.6199639204544591,0.6287405614898576,0.6270785943652755,0.5585809672674654,0.5781414082726333,0.5953271493027718,0.6155698512365844
0.6686121119822941,0.70539484459583,0.49175781923256956,0.6929718914391189,0.6993558780019751,0.6402599812136675,0.6546264402404501,0.6569032063543319,0.6704433621512739,0.7051762039559253,0.5913381794026294,0.6669043800616313,0.6764921787058801,0.6420883547657945
0.637270820086771,0.6062216034665058,0.46245599001920357,0.6569359670380165,0.6439653223650692,0.6454393788363524,0.681473334197548,0.6300219116735695,0.6344803628686114,0.6220268436503843,0.5713690781682113,0.46669097025353434,0.5893754987545247,0.600912089611424
0.5998873645407572,0.6436453191149061,0.4595365604814362,0.6619781629615574,0.6982415457473354,0.6598446593494617,0.6806281253181768,0.6306156693516299,0.658149684807783,0.6702720884577462,0.5817267885340518,0.5884354629752367,0.6139001309135428,0.6062185933189731
0.6788236956798636,0.6670357298125059,0.4841770162394942,0.6801116734512906,0.6612858904540067,0.6598128280110762,0.680516634997595,0.6993613524243105,0.7114609701270429,0.6925052424307692,0.5784353232790358,0.6655632075508051,0.682390635387353,0.6739606524843164
0.6256917588554022,0.6302091858369354,0.4652527427967192,0.6564706056991023,0.6655305214267523,0.625768054465526,0.6309840738377539,0.5708261366526134,0.5767739485660215,0.6104975677390024,0.54495139526981,0.5090148209768847,0.5610427808922113,0.5728118008468194
0.6368181230964769,0.6334165588695394,0.46835937438641845,0.6726170942611149,0.6816327762519852,0.6608280329193509,0.7138148045076298,0.6957860637827378,0.6985493468797517,0.6910409488268094,0.6059883400931829,0.6119662151179105,0.6508083283419328,0.65400048270659
0.6401979714299955,0.6965087941879069,0.4771417759809979,0.685845336715357,0.6652253983332179,0.6281533490273664,0.6290146692246933,0.6089386695303995,0.6434486538333644,0.6639000338623167,0.5811580706845851,0.5923689104256119,0.6380125641468359,0.606354777472606
0.6410519882727308,0.619176709919972,0.4814820348765482,0.663701111690469,0.6723630707790648,0.6717802618028311,0.7087432717949677,0.6538842433373259,0.6536428080569152,0.6422684479255107,0.5623985524995482,0.6246463657220881,0.6223096697816197,0.6411540338505651
0.6424643454497321,0.6422356890458688,0.4652188890870695,0.6484088948127071,0.6740135089776755,0.6543843036381402,0.6782896364702329,0.659732096660906,0.6688946783787288,0.6863552127911255,0.5908570290117008,0.5329447739742614,0.6323530130333648,0.6230663102848891
0.6181636238572703,0.6211982544637306,0.44953144742664747,0.6639876748871639,0.6474978297576279,0.611613596498411,0.6130470425600352,0.6076058757250704,0.6287327776985888,0.6397341755997558,0.5737170285705592,0.5324630959980429,0.6114918662248119,0.5860191925081166
0.6565544088632056,0.6779289068317894,0.4887802252640592,0.6901712580123688,0.6748802911911405,0.6596683550479245,0.7121247471608159,0.6458961607454651,0.6556681074842482,0.6530210163778327,0.5594736028626208,0.6804997036619274,0.6151337040776035,0.6412347540518947
0.6458637589274122,0.6502567170693543,0.4777018920487754,0.6709533376741209,0.6999780417038646,0.6550751656858741,0.6657235128630329,0.656157988183467,0.6612400257228576,0.6796579729415956,0.5864127132619628,0.5638526064359828,0.642688788676451,0.6437632373403481
0.611235885577679,0.6153810422647068,0.45611496982896693,0.6369893794613206,0.6518173306692036,0.6489734908000617,0.6624353124839972,0.6324485580332079,0.6604190134950634,0.6541398041829423,0.5789023085128406,0.5246217307644383,0.6153880495913097,0.5844153789068594
0.6665948479752656,0.6724446974908236,0.47833924072147366,0.6883116118745931,0.6768903105142059,0.6574143430178164,0.6957115686403842,0.6528306336332174,0.6632808643791701,0.6642733316800529,0.5806410057522253,0.6423883833445465,0.6447406244340615,0.6759182194985427
0.60892784655974,0.6373291389639505,0.4660241023009065,0.6720726321040927,0.6483238647861329,0.6153663011113664,0.6276467752498528,0.6181326016344918,0.6186754165548133,0.6377916505423431,0.5622626763526193,0.5648956817067268,0.5850730791628773,0.5628614680316363
0.667332443022971,0.6321284646226837,0.47934706040472097,0.6570206884085348,0.7098855995915193,0.6796809297209141,0.7105803974906871,0.682956188423805,0.7065700208563412,0.6962575352808732,0.5952523566045494,0.6193226991610191,0.664780567120108,0.6587275896169019
0.6283179774891511,0.6681569500358467,0.468372902749896,0.6762265751141087,0.6574486755539191,0.6387850675897186,0.6553183719403762,0.6170257749366773,0.6262710983879898,0.6386854669559942,0.5686560605698674,0.5225859353685818,0.6205669296933521,0.6328282316894607
0.6292225667191457,0.6299338466525664,0.46367723221412493,0.6626483999079392,0.6541154316532759,0.6385231812995446,0.6613952107907219,0.6322614513168415,0.6480299273670099,0.658429482432169,0.5712369961901537,0.5912561471846866,0.6202999270667862,0.5917792303312555
0.6398175917285045,0.6542070281864804,0.47021600611130926,0.6736229028003697,0.6960644327700714,0.6587749639350525,0.6758258961040595,0.6433288207615907,0.6639016194826141,0.6693858704853826,0.5870050585797894,0.6410045057091798,0.6176606784392784,0.614549888119783
0.6543822914178004,0.6348600025031121,0.4837893773827009,0.6578832609175926,0.6265356181897631,0.6350632604601945,0.6838321543666339,0.685852827048771,0.6797329174004387,0.6723887282693485,0.5768803177499898,0.5423181798417238,0.6403920129668911,0.671777521583681
0.6273255163435107,0.6602500758863267,0.46235019511165276,0.6740298372276573,0.6865319614553949,0.6504583213318359,0.6585173917825694,0.589548518413714,0.611810623663118,0.6360811996605819,0.569210090604999,0.5890886397959728,0.62575640097946,0.5990712284475183
0.6182600219069139,0.628303823283247,0.46427809314232,0.6731886426355425,0.7157867786137554,0.6569760046614547,0.6668277175357666,0.6377674396819096,0.6513868712195792,0.6599753470855231,0.5748224789806198,0.5502050151571046,0.6049837015880442,0.5853560789392958
0.670332287027117,0.6450921134890201,0.4810178368087675,0.6608457970829645,0.6374732063892621,0.6504706701008,0.7007024730023036,0.714837351703733,0.7237240934568857,0.7014134259864447,0.5909193480294604,0.6321506282669462,0.6507621694767761,0.6813326234373471
0.6258716891976908,0.6631923790066147,0.4704015271402519,0.6694876132977833,0.6601122011202284,0.6134344034670288,0.602353247746079,0.5764709119596645,0.6159503047843957,0.6384619138578961,0.5658350476942726,0.600422064188166,0.5998554247409011,0.5930915399853334
0.6336340026895476,0.6350204754242319,0.4676849387902265,0.6701745097484664,0.6739751257861786,0.684262880182508,0.726229240672517,0.6266625941883815,0.5947895550058647,0.6272999176009774,0.5774203593724097,0.5632885122922295,0.6430598463378191,0.6123890761036784
0.6443571570805531,0.6479510232582454,0.4707795265539042,0.6650686317446166,0.6964677589094327,0.6369980731414858,0.6654532643739984,0.6936013537875088,0.7326536024712862,0.7077533775358964,0.5687831003640988,0.5505119790167771,0.6261658042265351,0.6413908022590253
0.6398182987419344,0.6395846283253483,0.4726080741311885,0.6674632880670328,0.6458318846287673,0.658053169896118,0.6780151139280133,0.6497825991485934,0.6605453798860299,0.6592683091578875,0.5983992664828607,0.6416006933404932,0.6376893210041981,0.6457349716321388
0.6365210142229343,0.6597715096053466,0.4782187028948181,0.6819630027812222,0.6965486605571614,0.6254965351383757,0.635911585107019,0.5793146596723722,0.594475880846412,0.6207530466897838,0.5611748740965284,0.5308065789426615,0.593516738349876,0.5778463488545851
0.6269110255267094,0.6181512477924767,0.4556004803672735,0.6431787634062194,0.6181181727610496,0.6476457544061737,0.686033307018006,0.6980595722726325,0.7142457669443796,0.7321183351030617,0.6063162743383853,0.6295047630342698,0.6943167274253207,0.6535377244641691
0.6421536166246196,0.6689629255572086,0.47313237878458303,0.6808369743226111,0.713530367386041,0.6714288142123802,0.6799314776485392,0.5783420805075015,0.5829313467849465,0.5601349891497819,0.5022847369945803,0.5511653268129375,0.5172873429725661,0.5628851580594078
0.6669361075732683,0.6527458058242076,0.4861441623929912,0.672962842141589,0.6516521779511784,0.6283440221160784,0.6849091029010507,0.7094911205598821,0.692236449376371,0.706532396396491,0.631852999105941,0.6153062739691629,0.6841661643788017,0.6896469046470965
0.6060834709856892,0.6248920195739712,0.45082853686667035,0.6527843366179067,0.671326624064198,0.6432506052650684,0.6193634987302171,0.608261815455706,0.69322937596589,0.7189219162415725,0.6002322867106581,0.5346008800891765,0.666814372146486,0.6157181489068022
0.6300779190728741,0.6430912342629991,0.47806970414898187,0.6749691175633565,0.6789851461287426,0.6592496180709841,0.6967474134118113,0.6209866953770646,0.5871857195238062,0.5721134893036337,0.5269657106924472,0.5971854774572132,0.5565639842320632,0.5725128309812362
0.6693331635695715,0.656738370780857,0.4817680740933544,0.6743555601323691,0.653150668912918,0.6481188099590206,0.704873600013979,0.7025015535404681,0.706650473330378,0.7003599857426737,0.5835740333559515,0.6124819592410831,0.6461077085901701,0.6582595903609046
0.6330892942567363,0.6607537805192248,0.4618605585581449,0.6669393660616757,0.696640279370997,0.6480997104542835,0.6304268954041923,0.5822660068694069,0.6262959241178964,0.6672886666483584,0.5985687321081697,0.600681104280179,0.6460201810695747,0.648689086609195
0.6208754048926911,0.6306823961101878,0.46487530876608657,0.6655453215738116,0.6674021245334489,0.637971294746031,0.6879468511124808,0.6763593262396486,0.6752757500467412,0.6578885420796067,0.569580719106031,0.5337010224745349,0.6108175753409663,0.5743191017958744
0.658384358641771,0.6384174518824927,0.4844094792780042,0.6644908080752987,0.6667577902796801,0.6559052673653123,0.6630352565339689,0.6315622988520473,0.6330045277592367,0.6460488632312736,0.5691523742898373,0.6015737704500312,0.6310215595238039,0.6499678353242188
0.6252783924626983,0.6416352622695065,0.46736183638998274,0.6672792016454776,0.6574860502054616,0.6540296487042084,0.6765255393895773,0.6665682663939354,0.7028774124968507,0.6971331296121321,0.5994971740515953,0.6093598098060387,0.6459109383786514,0.6312134020929511
0.6385920733060528,0.658913267228242,0.46083824155220204,0.6738197933378169,0.7022045159091033,0.6357879990708112,0.6560270364816672,0.5838812368455066,0.5670654354042887,0.6007060527877504,0.539297665431214,0.5444638657302103,0.5704537796073956,0.5754342173121294
0.6455323225280938,0.6417909741624235,0.47732495843983713,0.664805280010572,0.6435664201659865,0.6547534688404079,0.6840037670023589,0.6779328452621118,0.7038294983512351,0.6825316878266091,0.5924519382091074,0.6080135245559352,0.6540553880000334,0.654574607919759
0.641992260139129,0.6425241854895588,0.47802866525038046,0.6671448768930783,0.6693892213519591,0.6445419141311326,0.6859974320755295,0.6763971145042501,0.6977281250161005,0.6964753438613202,0.5858420686677256,0.5678810997811145,0.6364650918178363,0.6361894984813119
0.6084762449385387,0.6353689584067778,0.4497808549918476,0.6597727681059407,0.6766307150911535,0.6400443565707187,0.6335552835795728,0.5773569332905464,0.5830899090730965,0.6103660234746029,0.5597915506300938,0.5732605612991377,0.5980495433963725,0.5740025835360482
0.6599812996755647,0.6559251806409976,0.48769607542593335,0.6813672154216535,0.6769873733279931,0.6495248891727906,0.6850419272033237,0.6581286870381771,0.6722441671867312,0.6959048323868134,0.600545604866154,0.6291734496365939,0.6590062276410251,0.6695129317911793
0.6623092564069817,0.6643302142099059,0.4770920370858753,0.6662649923490963,0.672918830730782,0.6689182756510794,0.700085108661719,0.6925123257512071,0.6865331175842839,0.6560371325193922,0.5689771258173683,0.5773261888672773,0.6264817249973283,0.6380656538762324
0.5954391269492461,0.6083388205908541,0.45111972422518126,0.652034893159404,0.6535022095820262,0.6151583954974817,0.6273931080300799,0.5728962114178436,0.6310527928160138,0.64765430029786,0.5580540269516361,0.5362653776915606,0.5888030264427817,0.5596807642186149
0.6585668052959824,0.670662085819636,0.48093383589927297,0.6885671932013188,0.6781190500147923,0.6689687373071883,0.6876165798208099,0.6673773200573583,0.6483268734576333,0.6546458197177736,0.5880768404988971,0.609117865818679,0.6461737319375032,0.6547708244316174
0.6427278576507228,0.64475220488709,0.47657642829134284,0.6631909403420223,0.6780442035266164,0.6530803809779021,0.6957579057035718,0.6640904687757205,0.6830738374373728,0.6983105556826815,0.5924688483103283,0.6282491752155659,0.6397885837163383,0.637725126594334
0.6453388984103027,0.6596836748280559,0.4688739321872725,0.6684293117605118,0.6915857546501522,0.6460488563353992,0.6442177284323302,0.6346188362613614,0.653763739397017,0.6473697992720914,0.5626880520730559,0.5387026918592503,0.6076468019330175,0.6090195804024149
0.6146199864157347,0.596396017465054,0.45925723293436843,0.6579513303072503,0.6083698962822168,0.608902186375707,0.6419815932781391,0.5956442926769643,0.6043655833699106,0.6204236034769323,0.5690856442790858,0.5508439826733486,0.6223986437580525,0.6059882508990584
0.6388574543496024,0.6893733751252596,0.4858560850847379,0.6834934479489023,0.7226195407448114,0.6819551539546369,0.7182090036741747,0.6763253460301386,0.6738803571130718,0.6725148552838045,0.5786053983538789,0.6390282423473576,0.6309785197735152,0.6357756119603337
0.6607052152759773,0.6278265712556631,0.46184221444047907,0.6494147573284141,0.6615667544657945,0.6622986783503657,0.6749733634446153,0.6612703038179308,0.6845285159187432,0.6972832078908766,0.5911458853182802,0.5732132124193148,0.6292617782955056,0.6340574066155225
0.6316693024949255,0.6511657488294407,0.4778966607112738,0.6814631580849544,0.6733506787107064,0.6265223895199157,0.654997365788138,0.6351255628075996,0.6575175368277059,0.6500498499794258,0.5703810857775671,0.6011208835366402,0.6378918162482133,0.6223343953872386
0.6259708696261886,0.6460204077445229,0.46573439146630635,0.6665073237810045,0.6433750903984143,0.6242951753471432,0.6452848673576421,0.6048178676159274,0.6110000179292089,0.6380392404063143,0.5792912108539787,0.5708593287218997,0.6098387084383469,0.6150049800828146
0.6485487236408094,0.6510096568105972,0.47417275241383317,0.6738738946000918,0.6898287017849414,0.6743349697227509,0.6923838533789546,0.676168143349462,0.679166710736273,0.6821623006180084,0.5728206121841004,0.5291585634476962,0.6296653759758798,0.6333367248917923
0.6328295128950054,0.6264889571530182,0.4647482784350429,0.6528604193764158,0.7014272001325292,0.6760892940518497,0.7002886477733427,0.636534101277957,0.6599319462601838,0.6476938513161217,0.560403276309177,0.6540076053610657,0.6086878950372706,0.5907728110370205
0.6368625706128552,0.6661373797537298,0.48338881910705456,0.6825308729641402,0.6193234388238151,0.5967764880238438,0.617076984689064,0.632992832475031,0.6736520958840803,0.6878526030768026,0.6114405310428728,0.5842387634762426,0.6696770749519001,0.6418817397765215
0.6422709074817654,0.6124200706521032,0.4585995738631406,0.648614824746755,0.6725886109644758,0.6512074594613056,0.6825707330955522,0.6225948190042581,0.5897577010214187,0.612484815673834,0.5495017626993424,0.5291680760085126,0.5781409237436395,0.618405115946883
0.6320750760321648,0.6755092564606553,0.467378462351848,0.6757808676870539,0.6946856005794272,0.6728605407550586,0.7010274595335981,0.6863035411029267,0.7007938776114603,0.6847800633019262,0.5768043341214374,0.6046319800472127,0.6388398203629381,0.6384041399167616
0.6548505730929197,0.6457485363756882,0.48659659482971807,0.6835820629227879,0.6995036517766945,0.6644097034528826,0.6709313514840952,0.6498167215042271,0.7028214044836989,0.7065313105532011,0.6023431118707452,0.6449669440581273,0.6594466119225676,0.6259812118932577
0.6132066872575912,0.6301940352238231,0.4586980520263453,0.6499544450675017,0.5998711145286735,0.5942818900993425,0.6047326229461156,0.5532894943766721,0.5393587189933169,0.5701448842077934,0.5377398373815223,0.4743707144150261,0.5633500025646189,0.5634143996425375
0.6580932844688009,0.6506952370573736,0.47159659143705196,0.669798201010169,0.7140058981710565,0.6792697295249766,0.7417748126617398,0.7325246388182831,0.7325623476604174,0.7284235426467407,0.6093662190295317,0.6719480533860405,0.6898568526357954,0.6866746651079009
0.6377608123173245,0.6606974810134754,0.47676638644813285,0.679898980290666,0.6889746939119008,0.6484657098779726,0.6527592272536455,0.6171541451227547,0.6537131284970652,0.6504496377199642,0.5668734633253933,0.5708313774116313,0.5924058453799761,0.6090570106697346
0.6252760426993378,0.6178140944852789,0.462878967535793,0.6446657092819237,0.6228415484756777,0.6380263083750273,0.6538371944379897,0.6197076870309892,0.6359844456738035,0.6420478401882701,0.573008262391568,0.5120367513413338,0.6281379327545263,0.6031734180543014
0.6460125374118046,0.6755157174950288,0.47709733072773036,0.6916124160989101,0.6874218446817837,0.6590493476969573,0.6911734170358677,0.6503030931670346,0.634484005161409,0.6505419544789562,0.5712493372228155,0.6288704399844594,0.6055858440187083,0.6245779134573013
0.6344190813752772,0.6248378804802487,0.4672069002856326,0.6617986536661598,0.6940306172197913,0.6293455277290759,0.6510723363938492,0.6654902416430338,0.6946950798190508,0.6904701070660392,0.5849157607738203,0.6702788720079793,0.6518039412883696,0.636494457340188
0.6520780119313461,0.6263025627228508,0.47498952901839636,0.6560482826946438,0.6250937135223974,0.6501994731860277,0.6817013067564509,0.6359785039873167,0.6665783860027293,0.6748359410056193,0.593224781924444,0.5192213606193916,0.6548009888729825,0.6402779681206507
0.6243761943663558,0.7073073966612604,0.46736900362400696,0.68179059706709,0.7245515314332224,0.6649440357984004,0.6723310803150044,0.588219754377825,0.5762477368414747,0.5985511314219839,0.5411597223404933,0.5003044403942064,0.5561351938728119,0.5773549345775314
0.6344484006362753,0.5971932052123037,0.46746334552060875,0.6585505486768445,0.6329138030927729,0.6365611191043745,0.6519760026538269,0.6840982422255814,0.7085435169762989,0.6965708425909206,0.5934907138329432,0.6715764070117978,0.6524213964553596,0.6309565277412448
0.66073008800552,0.6424043850028957,0.4913998473760483,0.6861837648455953,0.6786277161683659,0.6472679526064865,0.6963781049094881,0.6733244090171483,0.6750062234487495,0.6812308182551264,0.5807441373868132,0.6295970462881663,0.6641879456088906,0.6706012155810215
0.624625484462561,0.6339078990507611,0.43823349952912716,0.6472621259133969,0.6778504047434628,0.6425453104969723,0.7197358287629227,0.5865347309529207,0.6239551372534519,0.652845422308848,0.5910365140613912,0.46109113606566204,0.6242579543937048,0.524543431680202
0.619361551935843,0.716926799062516,0.4950827111743022,0.6745305653633722,0.6615050366761065,0.648183450768673,0.5014647160157565,0.6439214839917754,0.6304684822522686,0.6142259827183314,0.5332384967679141,0.6411671668305329,0.5445019966790909,0.7345066066744657
0.6632475005023921,0.5759775219820259,0.4542568664683878,0.6471725836757949,0.6625762923344402,0.666192181476585,0.8308447395587345,0.701790668424074,0.7063025450975392,0.713194005264384,0.6225156839429321,0.6110790461411794,0.7115433997450706,0.5948289136385786
0.6520763145032107,0.6735073139391994,0.4916882865521621,0.7152224332307422,0.689539819569414,0.6297833345141893,0.665520341134609,0.597956394472861,0.6450739091664202,0.6665860960161296,0.5757157105800429,0.5825072810243366,0.6302545220522621,0.5928233286370258
0.5988115409954143,0.6296271262163782,0.4601464506694524,0.6413931132582702,0.6497566350889035,0.6461967854976929,0.5948481033082311,0.6392104185925183,0.6337092136571268,0.6094355048858169,0.5285727207280257,0.5530270353633454,0.5432533988375201,0.5990927300460286
0.6532126477655217,0.6543074235756754,0.4590002713963096,0.6614061030087597,0.7037093964491576,0.6615165265413118,0.6838845474337998,0.63918159805895,0.6438945199288826,0.6734193613793932,0.5963265037120377,0.5828789745284148,0.6588870863324356,0.6686017352697567
0.6456504278589912,0.6500541359406551,0.4877962345083467,0.6703930817569407,0.6552427087076821,0.6362990932014257,0.7133129463966454,0.6632437341658902,0.6863646019857795,0.6871555073247999,0.6011653546885568,0.5958141707637405,0.6476245857395064,0.6117206169884729
0.6248099362762579,0.6462435172247335,0.46676324345622056,0.6721811941175576,0.653262356973721,0.6494622444999845,0.637377989911336,0.6129536233731723,0.6427794620350047,0.6507446154840459,0.5619190264771751,0.6086245341008681,0.630023528823668,0.609404527798606
0.6522690604438287,0.6306858457951479,0.4825541611385644,0.6782880247552989,0.6850978853601154,0.6066770078893382,0.6002059650877007,0.631755496747044,0.7436807067452833,0.7454555292240569,0.5726299838631609,0.6450973454175799,0.6333458486480477,0.6437190393954227
0.644471754963065,0.6250005880900229,0.47071434861231176,0.6565413149742083,0.6969302364569023,0.6568579097109836,0.6630356759085142,0.6397949138769802,0.5979468912785271,0.6218970382888988,0.5817509058244908,0.5356995354262045,0.621446495361323,0.596533524338963
0.6638258191442115,0.7109049406265422,0.48722308153144583,0.6981144645806101,0.6797417490307159,0.62397568267651,0.6354155813721327,0.6167321057476313,0.6314151054843584,0.6762035976123372,0.602933120606599,0.6437151017752547,0.6668587638546625,0.6858942353267533
0.5931171034749149,0.6012098498443779,0.44709616211013437,0.6436788833397228,0.6476810932823641,0.6879121179316412,0.7435191393107994,0.6938554123479689,0.7727370451595139,0.7109434178874869,0.5470962267044892,0.5634423315339067,0.5754755668431183,0.5650142266393537
0.6777086998711735,0.6566051543583933,0.486308191604473,0.6814105350210693,0.6872619784482205,0.6211202666605289,0.6283438944165474,0.63053042306809,0.5587521709446548,0.5999589852227478,0.5888151157705536,0.5740849112786343,0.6585757785902885,0.652022596299342
0.636799616959837,0.6428377866973386,0.4688526232237876,0.6663273932084408,0.659606584937949,0.6428496133037117,0.6689833021705851,0.6005321509069202,0.6389206802053256,0.6720046020318208,0.5835749775405289,0.5829829551798265,0.620660455991139,0.6307971803035178
0.6093875809525744,0.6262078423455378,0.4657676195813339,0.6510451108315332,0.6777606937748626,0.6754746381752036,0.6831631205267912,0.6647668605961968,0.7061482047418783,0.665965634093723,0.5593748964734795,0.5821702081393821,0.6053314564270141,0.5756810497413146
0.6572448019913585,0.6892997007232733,0.4765897687821847,0.6890429465163588,0.6831113359525077,0.6163172363182965,0.6404962526646968,0.6353793970574715,0.624724111877268,0.6601036649084464,0.5869636071458721,0.6126304466812392,0.634233591753746,0.6527701617866761
0.6319704858393895,0.6009657737144081,0.4655817178209657,0.6528893449196046,0.636075263870554,0.6676720367817532,0.732331297871136,0.6900423898129407,0.7057779966545041,0.6856430737771014,0.5828910472764111,0.5292657791861562,0.6450465288178335,0.6379187223198854
0.6502929856424647,0.6652134948638773,0.47801136765946817,0.6785510305675222,0.7097786435045129,0.6572042463161997,0.6340843214101318,0.6012321010376903,0.6129352541524279,0.6293276874729811,0.5723998005166366,0.6625580277604536,0.6188942971365826,0.6269098293215447
0.625116680988368,0.6817288942423849,0.4657957068623145,0.6737951639833704,0.6575507525565142,0.5967531056282657,0.6249085865058286,0.5975010113930458,0.6267819901620395,0.6453402123888726,0.5593220549676937,0.5053592823279703,0.6046921595862386,0.5649764738702835
0.642396343159129,0.5976885862728201,0.46978026137696566,0.6551734685167513,0.6547296562564942,0.6997377738432575,0.7415610986976974,0.702767578413122,0.7000862776801801,0.6994940002278457,0.6004926471214563,0.633150107239592,0.6430010209848078,0.6560306875688893
0.6447257884008464,0.6374371447480447,0.4755353224274924,0.6681120716771631,0.6818524457468105,0.6346432741094876,0.6586956257132665,0.6692189961249754,0.6804126872495617,0.6578714431739909,0.5714399665860248,0.5678952207558732,0.6313833025675811,0.6637484859055013
0.632887874456042,0.7085324646659846,0.468946237473459,0.6841328778885418,0.6905292939231957,0.6377633775203757,0.6309420023107154,0.5498361277451589,0.5775312746564626,0.6410101267889025,0.5700660765074361,0.5878209203389794,0.6151387528217033,0.5685664738545744
0.6336339050571406,0.5887325049178337,0.47095914230965064,0.6565230672451836,0.6325200802819662,0.6526126904237642,0.6915603642693275,0.6893141012131815,0.6814043446908823,0.6641603987020983,0.5770757992347857,0.5721137203879845,0.6271140518728427,0.6334832964104018
0.6415518967152021,0.6402193365519117,0.4682976029647471,0.6568346702289691,0.6806742937723265,0.6453752084718428,0.6840386287877207,0.6613711313950422,0.6945253880296358,0.6726214623517419,0.5796165949040166,0.5963685802853245,0.6159286076164068,0.6238526287076588
0.6404899058435628,0.6866384505802025,0.4747883843166214,0.6840718019506121,0.7048596501576351,0.6476518560066266,0.66141220580497,0.6227947206947249,0.641484964744464,0.6685738430871148,0.5857067757575575,0.6043579280291498,0.6531556565205021,0.643467980690178
0.6447540841948245,0.629957635405844,0.4638539401313185,0.6643001071252509,0.6355478086867845,0.6479043981241126,0.6625154476028465,0.630926099637999,0.6033917510431928,0.6027864304033405,0.5446956025038543,0.507254709581768,0.5833198291101049,0.5831293831866095
0.6353633462095848,0.6291777894536559,0.48315610863254493,0.664682131202726,0.6657579482727686,0.6472058240029255,0.6828311353647745,0.6459563023125563,0.6887256471983366,0.7234514938276446,0.6138373406063369,0.6432754365274368,0.6749852252190093,0.664587442210123
0.6279323614613729,0.6700503869591121,0.4634330796851505,0.6733544241659382,0.6976379435263013,0.649603794903451,0.6612493871575645,0.6921125486831703,0.7263569528762256,0.6898200047034697,0.5811604368693736,0.6614467434933111,0.6274971268122498,0.628843611724644
0.6400237435811579,0.6181086772498099,0.46163512659660705,0.6575744353830597,0.6664215958839305,0.6525244775926003,0.6790059816752848,0.577750062195172,0.535651687128519,0.557174787671699,0.5272326007358796,0.4439847601257816,0.5617101547718618,0.5509283586255399
0.6554761550763306,0.6569702196733468,0.488665360022224,0.674339904075716,0.6280004573798939,0.6404986616350707,0.6888511466534856,0.6707545931883835,0.7241531227815751,0.7366413932593235,0.6263943965586616,0.6550288277712559,0.6817954304614054,0.6994785863558448
0.6279333253101473,0.6694463953121795,0.46787521438384855,0.6737553979758504,0.7247384643156083,0.6411626343174166,0.617749389549753,0.6556154124594983,0.6503901618494192,0.6684052208540128,0.5678914224778273,0.5828653622895378,0.6297973413806793,0.6215508855344932
0.6165437346602777,0.6098767617565617,0.45559733253098644,0.6570508112244887,0.6643792679441498,0.6565378036312698,0.684395384971899,0.5665841631340888,0.6017793966213842,0.6076149234057343,0.5585489557363978,0.5726693855583241,0.5887222359781696,0.5502174156888033
0.6664671452405309,0.6646196557971834,0.48125365440461343,0.6715370865176719,0.646244355659813,0.6535576485728669,0.7121159003017293,0.7240155492167224,0.6993829333972875,0.6735614900679858,0.5694979243150803,0.5764684655394497,0.6239009437038011,0.6638256247308272
0.6408900473117438,0.650196475615113,0.4831826790706164,0.6762547964956288,0.6722785992744484,0.6447923437223728,0.6644923377704552,0.6414076270736703,0.68609911470811,0.7073106878570223,0.6095442718801972,0.5988867113280344,0.6700674965763714,0.6574616206398868
0.6098971813429076,0.6078296621889013,0.44530894429982065,0.6470203342168123,0.6904688409733398,0.6377030944504538,0.6163877185445865,0.5720030963362985,0.5794339378908245,0.6189720284588445,0.562757627919462,0.5527156944281716,0.5978827956895807,0.5842078402660322
0.6525385330133721,0.6999372612880284,0.4840614772452631,0.6929826335075545,0.6861845718417728,0.6618417826112343,0.6993756365512314,0.6717949018242982,0.6831618938346801,0.647304239575533,0.5540537476900033,0.621001311318054,0.6083683652831668,0.5994444594236454
0.6586895958954715,0.6162748921043008,0.47875282068388464,0.6529081170224003,0.6197886207656302,0.646859768591067,0.7261551279579074,0.713091563772149,0.7042269259495257,0.6963137991785651,0.6004949577016198,0.613295534222774,0.6544267759470039,0.6772931078966439
0.6179605883479266,0.6433988815135487,0.4651714803549335,0.67339054972717,0.6738968980206362,0.6313137052694922,0.6091293295216821,0.5472625700332878,0.6018982105582668,0.661645643378012,0.5832018305624885,0.5280839336808736,0.6193411027066159,0.5964334772013095
0.6198038850872268,0.6370696190187707,0.45855786682451666,0.6601691335013372,0.7321827269499115,0.6565887993582448,0.6467442601098489,0.6659756871345417,0.6610092750161989,0.6446506289927765,0.5616163801840586,0.5473743452227641,0.6286342256920675,0.6114313736076261
0.6645611380425246,0.678830365308193,0.48800866997904424,0.6827759012792213,0.6322662180242528,0.6523077981038655,0.7227338636302365,0.6546256362029887,0.6451595256936898,0.6320318415071182,0.5698378802366736,0.6683857912354948,0.6014448495540673,0.6280185707964625
0.6380285610026935,0.6106554725931522,0.46258796116530193,0.6546472896122524,0.6550554068262139,0.6436884387655002,0.6839326101964667,0.6429653041514429,0.6875410990320663,0.6988544953215823,0.5789666282623676,0.5526128102796528,0.6375572468035202,0.620947988729233
0.6459456472920457,0.6540325955864591,0.47725772248230425,0.6699063316750239,0.6779800335701187,0.6463183055472468,0.6326248431350369,0.6593857386604138,0.664699663199885,0.6775846092661815,0.605550435616844,0.6000035885326663,0.6640553123795653,0.6734006738333214
0.6065403450359722,0.6529026848949124,0.4614611569931888,0.662651480634132,0.6911500475559478,0.6500591522455818,0.6666648897741674,0.6023301861675988,0.6084095909638859,0.625807121099913,0.5487046456745991,0.537818917569152,0.5738432116776815,0.5529020569651568
0.6511149668311048,0.6406088864263612,0.46995551798684215,0.679004219180792,0.6522603180385664,0.6298143311972978,0.6774331845902337,0.6487738382075029,0.6593058912755213,0.6527778201528832,0.5698434413328606,0.6034107630962693,0.63336941983128,0.6118685354070423
0.6698173602789792,0.6694165993178811,0.4842810797839754,0.6769918827934199,0.6952097759337659,0.6844357160882711,0.6970490929951926,0.6872669435792254,0.7056360013730028,0.6903202960170921,0.5951726177845402,0.6033643661772232,0.6531998625236616,0.6833869103548293
0.6108019386310053,0.6013610778349008,0.46597635315601504,0.6402150164203623,0.6317149437058588,0.6231203149268202,0.6573960160886256,0.593145911368518,0.6056427794722156,0.6574796586747133,0.5954238885409487,0.6091619281866123,0.6249340939424937,0.6287863615430025
0.6266312800860093,0.6658210355058557,0.45615864414688434,0.6749862910451652,0.6638240028843252,0.6347787326769637,0.6539217194959187,0.6537922328083059,0.6629769780706741,0.6404829693970443,0.538246083017317,0.5262896156792546,0.5925077146793211,0.5591085472500212
0.6410400062729757,0.6566997886655563,0.48367670158209003,0.6910223424864478,0.7023580922480825,0.6589877677126208,0.6652921097884159,0.6143474720810796,0.6304599506736792,0.6484502001835125,0.5778673802598928,0.5615240642895898,0.6225634148061858,0.6266896782803383
0.6612956358891172,0.6483232445683593,0.4742425392265644,0.6520849469237083,0.6807862631873152,0.6565356825493566,0.7047441722230721,0.7124768044645493,0.7131993778974338,0.703809336229009,0.5992557873257233,0.6541172173535293,0.664190166549214,0.66314139632856
0.6289242686916989,0.6198869038493992,0.46322846393068284,0.6595000056546176,0.6388692813998543,0.64438388297047,0.6559288876666179,0.5848716997725504,0.620148755868708,0.6510845130480581,0.5850731767034788,0.5812770946377531,0.6292623659359239,0.6331450959770378
0.6350352649410351,0.6673061634751631,0.47779732138012704,0.6775717606059006,0.687946750987407,0.6377285017725751,0.6434420498612893,0.6564742788756343,0.6659597431095211,0.6471773112090774,0.5602454853003406,0.5744856881137463,0.5956819629664802,0.5986459329341076
0.6292618022998848,0.6407495427656961,0.4659188345776994,0.6739267907130189,0.6622680205389379,0.6567524644498546,0.7125297538076203,0.6392563797497459,0.6247564749468092,0.6457875648397328,0.5596268052670309,0.5232823425446393,0.6203204603255683,0.5881734411378164
0.6598791245095893,0.6424828448843042,0.47333686493506744,0.6589039771805425,0.6963476983273386,0.6608371150646358,0.6647705890827104,0.691140201843605,0.7349648650956329,0.7120023887021145,0.6060668803387296,0.6529250615990603,0.6593211510572923,0.6940804559037896
0.6281373646055664,0.6527540555557196,0.4704029626459645,0.670223963120368,0.6428041718101771,0.6265956051990728,0.6426802102715233,0.5648211864218184,0.5683033773440996,0.6142085074298818,0.5679732353656267,0.5832529434718683,0.6071255919091697,0.5870703354608003
0.6292710799477532,0.6421242466475505,0.4694523924461995,0.6667286689099745,0.6848149067382117,0.651448101551836,0.679957065852629,0.6683521161197138,0.6740499883168344,0.6763006582305279,0.5740554471504544,0.5666731664632072,0.6307958409969037,0.604218102789658
0.6640997080135658,0.6432665847282311,0.47691067817821137,0.6787470515665647,0.6605575944423314,0.6514958414136484,0.6973102836890323,0.6684915198101555,0.6776291078574662,0.657265614048837,0.5591197353592967,0.5649594601829986,0.5966609827743393,0.6386799642289067
0.6080520821040276,0.6354820342154859,0.4660676473925611,0.6531589779767264,0.6894134695963048,0.6623697768983116,0.6744746826749569,0.6485452033351969,0.6756706416852966,0.6702676464631788,0.5977755804876539,0.6090347872629224,0.6577474851637701,0.6391443599774985
0.6511020804343337,0.6699848310454348,0.4660736423851394,0.672872664838582,0.6531574340884704,0.6187753173341785,0.6211223690620188,0.5812277672452969,0.6090905708892776,0.6621674899721436,0.5873677716362485,0.5952449845701082,0.6418799038594226,0.6146795404150863
0.6315176914595002,0.6142170611930808,0.4756495164378259,0.6675307601053737,0.6884938673521757,0.6530030399621092,0.6675377823017657,0.6523244799779098,0.6410712930837733,0.6565186146343539,0.5647283147957035,0.5550901460281423,0.6003485869651172,0.5980490765833101
0.6647353873050332,0.6705617272905425,0.4727269618320403,0.6669675644778129,0.6369817998027036,0.6658643460444352,0.7584031190716297,0.7170960209879829,0.7128056365955739,0.6417033782785734,0.56908048614469,0.583645715226628,0.6148545914955805,0.656359460244011
0.5919979510069663,0.6227936280855891,0.4593924348659512,0.6648167006798719,0.6984925515118,0.6398062090806674,0.5937343060658118,0.5645918031217817,0.6136241793022046,0.66672821486908,0.5670790857750088,0.5776713679385991,0.6259687310369123,0.5855933428035975
0.6617924027459462,0.6581061183336334,0.4816101125402249,0.6763637235289028,0.6690185955024759,0.6355508395498736,0.6697773317228894,0.6444722331869497,0.654253905378713,0.6732387035470018,0.5964357358623739,0.6228546794818055,0.6412607800389086,0.6397965931113779
0.6542090988392062,0.6516830168116103,0.4764293904523971,0.6639418751153596,0.6715319638797005,0.6678587189959743,0.7125985522231945,0.7024113693206496,0.7027480853790664,0.6853976628684203,0.5940539581046766,0.5956471589659083,0.6597526207265814,0.6427620380210931
0.6222356370816426,0.6292371640397151,0.4525005365972349,0.6583283732790873,0.6623139027474227,0.6339519797473541,0.6455557750102185,0.5716169528359165,0.5574854000646778,0.5836035964089571,0.5248248175826857,0.5242662582558161,0.5382444793413944,0.5734349084496269
0.6350277656704546,0.6559037352160718,0.48455640929611854,0.681920614411514,0.6743310279411143,0.644827203543699,0.6501582389006901,0.6577577840470469,0.7301858297734543,0.7240952917770695,0.6083223364135933,0.5692756601314327,0.6829613837464382,0.6567495878038224
0.6361304149761482,0.6407919879166799,0.4702092831428464,0.6653012690852794,0.6826975905505109,0.672223205926797,0.7100881677696131,0.6919282120385314,0.6718367962071907,0.6638144620573634,0.5858618269078449,0.635494825837458,0.6358394348700359,0.6310283683634053
0.6537760903292581,0.6447128920202072,0.47053595884978217,0.6619775002108033,0.6447499696995467,0.6185249523309825,0.6716478624375534,0.6044741709227998,0.5955554789049543,0.6237640853529715,0.5611592776905875,0.6082055980285984,0.5959687008904109,0.6117791106195276
0.6375055300631297,0.6614339951787814,0.4684702870191817,0.6777416814345235,0.6725282610339356,0.6456420785202959,0.637440194619358,0.6395331776389943,0.6939364402097545,0.6956779281166481,0.5841929112211758,0.5481463387450303,0.6486391862709705,0.6410434468855616
0.6178181241082199,0.6186706804007084,0.46146596163425335,0.6507999733388272,0.6906864371518092,0.6665121482469407,0.6828665868070403,0.6474508190844854,0.6387079506650246,0.6399568497657523,0.5672517094523225,0.5461089245914298,0.6026974804946414,0.5607953171101728
0.6478698458904633,0.652929480798584,0.48161551064695995,0.6777408158439635,0.6485702301811538,0.6388852707492004,0.6765860263676906,0.6290693995285142,0.6359477349757668,0.6400128406490759,0.5710519810318825,0.6512610860240264,0.6227694766263068,0.651075008108976
0.64748817026328,0.6519018769379271,0.4734478088133683,0.6656988888962985,0.6779467817353818,0.6483160216793727,0.6819250792704267,0.6841458234070857,0.708927285876564,0.7202623205898199,0.6085117164525572,0.5376940898792291,0.677964283353537,0.6815772634328543
0.6422883233533253,0.6563701059243428,0.4691417784523079,0.6793444159734566,0.7005595846034061,0.6438512390855776,0.6369438139932982,0.583947670209776,0.576409445425336,0.600044120609667,0.5443855388359898,0.623359096125125,0.5489330653287943,0.5667926441414046
0.6289072106949939,0.6407196141820097,0.4713842337014313,0.6733965117179518,0.64018739336566,0.65965683715874,0.6998214262616652,0.6617925749263284,0.7072162968558369,0.6757444907696175,0.5722736989392502,0.5614149677971657,0.6635637460386475,0.6009090948311736
0.6013942542305039,0.602513661711585,0.4514264920761713,0.6057645297847246,0.6603549951978812,0.6294327007053317,0.648716764724865,0.6890846744308533,0.699044346618984,0.7272753206071909,0.6288103751407715,0.5509033219411681,0.6700105369615856,0.6897297799486395
0.7125909492279084,0.7093536877330949,0.5007457672514254,0.7405400053525273,0.6969732985730996,0.6632991717490261,0.7174502296911005,0.6034693952798902,0.5843550608875112,0.5959090123127306,0.542752358145753,0.6808472034413894,0.5906751784622886,0.6082633377148335
0.6165448077747647,0.6457609757514005,0.47417924256220184,0.6808764084985193,0.663750495013525,0.6379672238211079,0.6052207232051167,0.6159593880998941,0.6520097897078269,0.6416478915112643,0.5531745698069747,0.5288858068980434,0.6026406520821096,0.574847802601489
0.6045111625765025,0.5952656194853896,0.4440623334821865,0.6026421978537274,0.6694628594093622,0.65522534500507,0.7271747933170188,0.6554384015202015,0.6794176176504917,0.7020743119090144,0.5998969721583342,0.5385761593086127,0.6360071781584055,0.6281152248568258
0.6653162057252076,0.6754058415593057,0.4815848040602119,0.6959511828141628,0.6605703509796671,0.6378117156002966,0.6465808735477566,0.6947996391749003,0.6750509553363295,0.6607463084970957,0.5917697792374339,0.6477321221016911,0.6471498523022914,0.6829254619255005
0.6228406067561518,0.6415229607867059,0.47191457969679823,0.6744280223249651,0.6790297537168689,0.6393672952325695,0.6331684449718142,0.5677018591263705,0.6135224369398966,0.643601861594683,0.556786767816353,0.5701925198695581,0.6053890201667411,0.5741164521608862
0.6441923187440858,0.6343135112178314,0.47032501227939266,0.6532399965344627,0.675962840838641,0.6701163758689382,0.7182264445896023,0.6627873141928442,0.6502985886064938,0.6526054619646372,0.5740356107188032,0.5585534860445931,0.6291630053382262,0.6081157451907013
0.6445316240003874,0.6577204516127508,0.47264604374127694,0.6724808416503172,0.6367098217536287,0.6326521079663389,0.6679277567823673,0.675504980546883,0.6993013886671177,0.6735127042314616,0.5750679276969685,0.581388428875883,0.6219955140932208,0.6446471592911002
0.6227656802246945,0.6525489123384668,0.47292290360707945,0.6893156916817309,0.7128081077578562,0.6620682412926183,0.6663341387966598,0.6198303057063896,0.6394362739024279,0.6756250446703793,0.5971630145190908,0.6387840712561708,0.6292767005729173,0.6442889096350581
0.6628833497693047,0.6420224603901551,0.4672159379531666,0.6494818585915169,0.6644544831375376,0.6393909020073347,0.6623122949956871,0.6526199645788816,0.6422260142475653,0.6432390118275936,0.5693107782766524,0.5622913789084807,0.6409335707220847,0.61486089625567
0.6097328564314988,0.6177071401395747,0.47081876224788555,0.6581960962772349,0.6501816992925757,0.6403659584264676,0.6697973382072544,0.6241460540211161,0.6801275892211527,0.6908027335353323,0.5858512451571382,0.5637386053256266,0.636758353600527,0.5981010539159447
0.6494420324493474,0.6629402352500449,0.4653766599443008,0.6717583945640966,0.6825863005555668,0.6777363379041017,0.7095831100745066,0.6537495582938257,0.636774871788248,0.6201281000748948,0.5506055335520871,0.5845760282412229,0.5809282706351342,0.6248773890804837
0.640140896100155,0.6597134555634886,0.47361209360812107,0.684151055537636,0.6575520458577293,0.6069239346359273,0.6118336649715045,0.6047664160401482,0.6056989286479161,0.6278031078556906,0.5515049515959407,0.5486873316812743,0.6091181922385916,0.6053664254180606
0.6467305432686904,0.6459680025088763,0.4846147260997062,0.6638183032392957,0.6849466879883526,0.6462824920285053,0.6881753776201537,0.6903546090360163,0.7254529236748042,0.7270526421046131,0.622403412695595,0.6579458108833428,0.6686834911453573,0.6739790527394768
0.6215709837533935,0.6136879784300017,0.4497038648637267,0.651898018566094,0.6720730891347291,0.6879946218751553,0.689511067090211,0.6131453214669851,0.6232052094353757,0.6501419136513058,0.588535890517218,0.5563198832983725,0.643907279931333,0.5998022851778714
0.6589950880386364,0.673943150369977,0.4872571252930696,0.6789160224432594,0.6732329536868911,0.623679462742733,0.663791978736322,0.6975413749471407,0.7138840874252255,0.6901312446016751,0.5721758395038984,0.6117791650154111,0.6273861374884805,0.6376438315037333
0.6232684451689188,0.6322590665808558,0.462555635391403,0.6687917279778125,0.6517644589542926,0.6305225436381905,0.6500183894811961,0.5635779470676785,0.5569526602444279,0.5775289757996782,0.529618904806615,0.5426382971171201,0.5551520828172765,0.5735473442533832
0.6418459623039068,0.6567512723710782,0.4695800867291985,0.6679242409047674,0.7031365832636918,0.6852653679801902,0.7106322377596088,0.6828250857731542,0.7096985440199552,0.7129523377469584,0.6089761961822606,0.5466894383915889,0.6729988534726248,0.6514844576636712
0.6395734940458134,0.6362989243285411,0.4806460638942752,0.6613984824596723,0.6451598354199412,0.6149557746733229,0.6215610040136269,0.6296395671427057,0.6472896847051567,0.6625838877503423,0.5905124548862368,0.6679131481651126,0.6531460428479868,0.6475456185316433
0.6288244145852688,0.649075704377446,0.46289245638340365,0.6779064169599025,0.6758847111205681,0.6620668659794076,0.6918479189886951,0.6621160355094953,0.6710942581217214,0.6635164033720508,0.56503103553058,0.546153252412685,0.5869135052107977,0.5857678991969203
0.6529610105130601,0.6537811338981055,0.4727483835065221,0.6668152788809718,0.6848052183802918,0.6583164629710145,0.7060857924832117,0.6306438699212932,0.6361109062029239,0.6409970122569019,0.5738925149799203,0.5913609075505397,0.6420239166342858,0.6323506022188016
0.6294610180057923,0.6259611733436726,0.47085173718879975,0.6575883345753091,0.643787435640164,0.6281414821909314,0.6262607684042731,0.6080742031507058,0.6190978433413776,0.6419530410179266,0.5629661392923407,0.5478272619132223,0.5788971615790958,0.6174864128478058
0.6442663726882087,0.6899681763418095,0.4746414335683599,0.6871419788449459,0.6701488423234584,0.6489012698660861,0.6650020014417543,0.6927687425980629,0.7249859276252972,0.7147007175398091,0.5976704090683392,0.6345882896597282,0.6936820405629296,0.6433031004746443
0.6179504392466674,0.6614035141831823,0.47242027366602235,0.6824552065737204,0.6558431827392348,0.6187002355167626,0.64882163987633,0.6497484319924336,0.6659019736370436,0.6773338335393166,0.583262825408463,0.5868882614937524,0.6589997940417437,0.6089593474408803
0.6351731982444563,0.6213887046294955,0.4695775108828298,0.6569303540764039,0.6938259578429541,0.6650222150216487,0.6823508586429563,0.6535217322069812,0.6642721202652724,0.6694661685067825,0.5796748264120952,0.5843439734603519,0.6252483850562911,0.6198969043831065
0.6642481332659292,0.6584569751431506,0.4790318010306416,0.6781560108589554,0.6603813266165598,0.6664945341872864,0.6864816259755762,0.6463000778158161,0.661131912993392,0.6560274670965379,0.5871660191608733,0.5075523483561117,0.6361711228724387,0.6511434510191011
0.6234272417206472,0.6467071639829498,0.4660990050947593,0.6615282832116622,0.6654635700931083,0.6290514959314073,0.6644662892433553,0.6345461964109697,0.6489797524835805,0.6622700890107807,0.5652272465304117,0.740981027670004,0.6164264783657611,0.6118545348993281
0.6261593345719015,0.6343744105211768,0.45938018918419093,0.661592470858015,0.663339873330091,0.6361915461399904,0.6531258952806643,0.6023795093211576,0.6161929976411634,0.6283545376839557,0.5569218074637755,0.499180266336282,0.5928891912481906,0.599747408399111
0.6502797297666397,0.6487838172130973,0.4832456604028331,0.6762168847440972,0.6818577786906109,0.6613557432195211,0.6707774307191775,0.6924593638824461,0.7075558055905993,0.7086794698605142,0.6097894504659535,0.5681320750421701,0.6717688180567702,0.6422973184370645
0.6494548625650773,0.6576811572909791,0.476453591984415,0.6727303097481228,0.6856795061672837,0.6519048301652132,0.6821848549210979,0.6150815082097769,0.6197358783640463,0.6323704054739613,0.571182960715499,0.5929399186661882,0.6251038343070078,0.6228037309341633
0.6060772604452425,0.6247582907196694,0.45167465251580796,0.6540803611187609,0.6353955253382556,0.6412245013278215,0.6879878629116993,0.645276305034903,0.6536278979146313,0.6431411113986254,0.5466851194719298,0.5631284639458062,0.5696648845262635,0.5916194604465855
0.6707061071395555,0.6569671643365772,0.4888364743068515,0.6796195804203664,0.6765863987242041,0.6326199860825751,0.6356781129321876,0.6374026739348861,0.6957515203705651,0.7069798612375457,0.6110963906978667,0.6601062880581242,0.6787898199893162,0.6653060337074421
0.6269903038599399,0.6469192555586676,0.45964747201020517,0.6628387180198971,0.7050894828654584,0.6697515110024439,0.6982119832750306,0.672809072051135,0.6142953167241173,0.6260471063590687,0.5564111907805168,0.5201923267243876,0.6041673768760342,0.5983337972199744
0.6383216625687834,0.6490394990023112,0.47535647152766647,0.6645223785568576,0.617311083030052,0.6322093204204972,0.6502621482265827,0.6220839302036337,0.6593376175953511,0.6834808872512596,0.5943768119520499,0.5878529567154439,0.6486940011850431,0.6349377184466336
0.6339438643961872,0.6365461431240971,0.4719369459114429,0.6717946859141158,0.701451391017363,0.6558929231320114,0.6871828163062075,0.625154340355303,0.6643581269378183,0.6425661732199918,0.5621988895002596,0.6048563803232492,0.6027641788630318,0.6106961537417965
0.645299026932911,0.6531701587643273,0.47199236356359126,0.6763964428822553,0.6858031123196662,0.6448814953038775,0.6631455976374452,0.6757513418990243,0.6699638912777186,0.6769870372515333,0.5856628054804142,0.5842324544667638,0.6214669172599767,0.6266027318743737
0.6373519616224831,0.6391745185052562,0.46445961085193194,0.6539055581729283,0.6518289068094213,0.6594965423984167,0.684263512247968,0.6316680084931409,0.6380938747887306,0.6564571889285081,0.575124202584096,0.5785788733214228,0.650618850830704,0.6362884916861533
0.6306590245584606,0.6478164733777282,0.47464143079313903,0.674099831227859,0.6784955464835781,0.6317046915959103,0.6425074600939233,0.6296229277823587,0.6496947917118473,0.6558251453175319,0.5747396038704096,0.5663901211214524,0.6192739904313139,0.6068427230736634
0.6388487034466238,0.6360679572087332,0.4700969833581781,0.6653095746157385,0.6699442481539891,0.6532862762019773,0.6857951431180731,0.6271097369961958,0.642480074349565,0.6470350580145964,0.5643840070625304,0.586868756776493,0.594201434944365,0.6059484436296156
0.6421386263662815,0.6625901400347863,0.47454265183854555,0.6710309511996952,0.6680792588782094,0.6488241322948493,0.6836309093275255,0.6791464800142014,0.694613261931204,0.6951836053203971,0.6000835501180662,0.6164612720045732,0.6666587038189689,0.6587017981239996
0.6418710804060092,0.6399887671005992,0.47059159278336865,0.6655164291685897,0.6720318420632848,0.6465190873616348,0.6562586185156662,0.6300177365603414,0.6417524301020608,0.6428415563947212,0.565551743427886,0.5469568558197402,0.6118608480152241,0.6063389184922324
0.6266540708205067,0.6319663210532047,0.4649411771481156,0.6662620866659077,0.6610833302477079,0.637768573616435,0.6500859785830825,0.6117893002492917,0.6173979347505312,0.6464893846608891,0.5686812866396537,0.6017570649193515,0.6139679761159891,0.6120603833550782
0.6529441407742035,0.655040207656929,0.47338088262391986,0.6734657915701927,0.6875377393018125,0.6645139090344506,0.7033457978839196,0.6559100138679099,0.6760525541918574,0.6694279086314728,0.580644680982177,0.5787650924622638,0.6209843277350168,0.6203969228358075
0.6321580126892672,0.65272098412952,0.47476332750771993,0.6683992359864064,0.6648746571299815,0.6356960045156759,0.6686254492848425,0.6783709742280261,0.7051522849569555,0.692625958615965,0.5955720935777837,0.6131570159388959,0.6599261932814888,0.6490087310701316
0.6439686516918353,0.6606069678577828,0.47373076745574366,0.669912887645002,0.6638892892208641,0.6514098076902052,0.6632724550909556,0.6162266317040151,0.5896929645706068,0.6237278869545946,0.5637444863946969,0.5670806440214984,0.6229392761131003,0.624543989497767
0.6145910374831152,0.5941359024830752,0.45635722633614534,0.6537208892842475,0.6741711200322664,0.6504618831709347,0.6652899163284602,0.6213495801370051,0.6569394658697597,0.6599682670417295,0.5591453877050555,0.5410171759854521,0.5942116529797465,0.5753637505269135
0.6635543811298733,0.6875768971988651,0.48172394162355353,0.6851369446642029,0.6793548986120799,0.6527148298538601,0.6888664156308029,0.6829111391117082,0.7023990308948201,0.6768814578887897,0.6016881770892346,0.6339003917979195,0.6345665220587383,0.6537169140788416
0.6137898072843176,0.6170525361478977,0.464514601790463,0.6496023117651266,0.6279622650961706,0.6124094835960078,0.6276921706156988,0.5870271711542253,0.5971258561739858,0.6430335833797043,0.5587019959833154,0.5288772166739307,0.6127219611097265,0.6012637291861377
0.682918844114645,0.6876175544825768,0.4857494628156131,0.693566396049967,0.7343343451718654,0.7033117165079941,0.716934901045282,0.6841512372224996,0.6841209160903301,0.6855829405716563,0.5986776260171003,0.6752046518567161,0.6833862225415329,0.6963882541773961
0.6007261309462851,0.6140890473405484,0.4564086676651174,0.6457920123144655,0.630599595338168,0.6061608146543792,0.6545400072328956,0.6418586095078711,0.6625158629252658,0.6369934806767584,0.5563446012709947,0.5113969977243513,0.5676638896983124,0.5361550332963289
0.6507830545985266,0.6590842192678686,0.48209326329614266,0.6818915282148135,0.677180561475556,0.652446189045517,0.6628323618050107,0.6068261596450141,0.6334727801185622,0.6738345137523244,0.5907896879049755,0.6042419275407317,0.6501956137703351,0.6627650811313424
0.6276741121747972,0.6276172047805085,0.45855705836218763,0.6524358258178099,0.6647312645207418,0.6679499167166749,0.6993349834395606,0.6945593215736566,0.6900969902147506,0.6726243800016576,0.5659145214171056,0.5639220782895826,0.6143081215966021,0.6075905772086234
0.662148725924715,0.6634402290157506,0.4807471296187393,0.6849348459261656,0.6838728925962,0.6345122421276072,0.635931939342063,0.6111845855602627,0.6295799252046034,0.6517108962592636,0.5929988357493545,0.6546370819370011,0.6526423331897374,0.6602338392816222
0.6135398824802956,0.6226577513927829,0.46515049466334046,0.6485991075865983,0.6794597387557497,0.6529503091022628,0.6902343084100483,0.6560879044445542,0.6758306729566153,0.6577703707179439,0.5610559051959741,0.5181565834680111,0.6021084458535404,0.5848168235393159
0.6443188999762379,0.6674180481645604,0.4746790517539857,0.682723793588119,0.6483540320450195,0.6397052394830798,0.6681914598046665,0.619914372194046,0.6115708735225914,0.6347091455535746,0.5702726817662843,0.6016633263085063,0.6108356309931499,0.6222294725586132
0.656250546752934,0.6530083326428748,0.4749702743270999,0.6747546219664963,0.6946343789931888,0.6522125488630613,0.6683600888639626,0.6625336906226446,0.693276936084936,0.7050621576403449,0.6014951422865183,0.5970061861337201,0.6647421786219739,0.6600698521231756
0.6166875180185535,0.6144740744953545,0.45774220667786614,0.646112952954571,0.6565526638536628,0.6560233075634739,0.6719305644417709,0.6304664957603132,0.6428140042607143,0.629281393066429,0.5504303435401259,0.5189665533453719,0.5852446299760012,0.5756245079789757
0.6530657306247301,0.6738296566209464,0.4805955389074593,0.6845136713304175,0.659902671193002,0.6297855089824203,0.6624369778613809,0.6415814305773725,0.6430207315077848,0.6698296938489446,0.5937113413925217,0.7042736474517199,0.6556245946826392,0.6552084515444275
0.6248850740565866,0.6252771798626663,0.46806811635097395,0.6582298478680009,0.683818459733745,0.6633207377146227,0.6815260086058652,0.6503909535288124,0.6809843472849931,0.6657411255972332,0.5700169196387558,0.5247145630257909,0.6144225481991494,0.5812020836973116
0.6434706012932541,0.6511894055546651,0.46943677267351264,0.6703788635526956,0.6555126048258666,0.6277978417167861,0.6582243515192764,0.6305823763701999,0.6290546578637174,0.6553559069809253,0.5777802622058706,0.48813877412692963,0.6213318024885703,0.6617754417549592
0.6362363297672142,0.6539038709269507,0.4728508671518867,0.6727746728285248,0.6933561087010623,0.6688341458777889,0.674558721993366,0.6367978190163807,0.6595454834832191,0.6604554112704782,0.577111348113005,0.7049881722944601,0.6311086040450864,0.601795689685842
0.652334315050126,0.6538685334389595,0.47508728055902405,0.6698427791485411,0.6660844831032788,0.6459644316960405,0.6928188176949139,0.676667577498305,0.7020108681930375,0.7010541579411005,0.5929643770702883,0.6123676391839635,0.6576279300189442,0.6490045346172123
0.6120922991401385,0.6085813237398421,0.4593366943875218,0.6540536870756632,0.6432525898388118,0.6220872865764767,0.6229833334874846,0.5836574451601365,0.5715793915845722,0.5815079023945798,0.5378288752339577,0.4800625212480683,0.5599613381915189,0.5800810820113823
0.6615152091672588,0.6805910625494802,0.4792118948881828,0.6797646993021182,0.6986381158561442,0.677389310745297,0.7194724669209245,0.6838610737530822,0.6955424229104278,0.7096929812991728,0.604871120896857,0.6020379323349123,0.666555373916095,0.6559003325011303
0.6266217987041859,0.6324222376834389,0.4689064131446071,0.666333355749908,0.6713469907915489,0.6292878527151339,0.6449911708920618,0.6378821803897539,0.6686427436611303,0.6650929659653376,0.5721612564132946,0.6196940868947255,0.6137149638229851,0.608393152859936
0.6373538226329765,0.6326899565038495,0.46705532575417236,0.6636741298889541,0.6613775406449326,0.6553652203422897,0.6780216966800693,0.633353248785579,0.6314231781971291,0.6451474279829156,0.574628179566645,0.5781215815300059,0.6327269683444404,0.6215447491489802
0.6579186212950878,0.6698124482401754,0.4826957186082593,0.6719116967320534,0.6688028923651091,0.6589760917985821,0.6836242588739356,0.6583150673660821,0.6667929050991085,0.6559244237745856,0.5809541949773034,0.6161401425739057,0.6375530857345105,0.6481872013099679
0.6031300327319105,0.6154449892185593,0.44973090505497143,0.6545036037340483,0.6770613339512377,0.6249183546352134,0.6384129840002655,0.6024071970266468,0.6392127998863323,0.6593668066682272,0.5527955352489938,0.4732581641016841,0.5719507505299357,0.5636969599538284
0.6687150307912211,0.680312805392482,0.4985334522374218,0.6938508933349592,0.6669681388843193,0.6571365865574105,0.6964824310949336,0.6928739816475894,0.7060098511597992,0.7170912925770275,0.6386831301423892,0.7173345466804367,0.7127322777862165,0.6920914937048889
0.6330997430903564,0.6373379334851735,0.45443860342377174,0.651508969618775,0.6774548868150705,0.6546252474653729,0.6566422919235076,0.6127371399341244,0.601164777257672,0.5906826451917213,0.526431999515525,0.5252102202524023,0.5749333078182568,0.5974255203188267
0.6301312741043674,0.6527732007678271,0.4748580716736725,0.6827542313498715,0.6647711573697925,0.6356535108508571,0.6701760348426022,0.6345640914046652,0.6362845890447273,0.6497623125962496,0.5437849615697343,0.5512912352819569,0.5791159428298253,0.6046145535521142
0.6254567233596902,0.5788831528489833,0.4636024935710293,0.6325994333674694,0.657199847496287,0.6445829521323382,0.6893339339241743,0.6734832307525623,0.7486329472016734,0.7558313348339777,0.6577980244104642,0.6042132486104912,0.7252060468158716,0.6129675529098576
0.673292196441606,0.7319679399586981,0.4843041528989553,0.7081377002570483,0.690050324100936,0.6570822261351101,0.6420710064871629,0.6257900670817009,0.5956633405879695,0.59882072454705,0.5462876818205308,0.6517836356427499,0.5902850587576356,0.6908101929772736
0.6180711500216461,0.6183698498111928,0.45470429413569424,0.641726376296216,0.6535104575154802,0.6447965597064954,0.6831995182076712,0.5870085549840602,0.5778661637271352,0.5957879033380459,0.5279423033059787,0.4958980936325515,0.5543188872713052,0.5478980466906994
0.6378510060865297,0.6297657194073998,0.4860347071309663,0.6807351783803742,0.6909143989706154,0.6496394522294555,0.6822126331941145,0.7443421174738588,0.8035096980789744,0.7892098258404441,0.6387349414326094,0.6204711997624459,0.7179147336452141,0.6663730396354642
0.6395073774426216,0.6571958689463777,0.46629272671610494,0.670232227489552,0.6567962073214193,0.6458582758381147,0.6576309960697697,0.5855057579807513,0.5798037791512882,0.5934200917604993,0.559750625414249,0.58308700363059,0.586301476099771,0.6180891710250057
0.6314649268479,0.6346902951128334,0.46395711583864635,0.6529595830723299,0.680095249134994,0.6567915785942767,0.6814211546245474,0.6308877992683124,0.6284349001207997,0.6375201502825232,0.5561860531250105,0.5806531946325598,0.6180548550192853,0.5778733139087319
0.6332989707549256,0.6426248719391824,0.47252992097404817,0.6700541713419378,0.6519162505710083,0.640960267619288,0.6739424482020874,0.6368142599411581,0.6577824096590792,0.668360288975282,0.5739308581256379,0.5687653457084002,0.6096820593575127,0.6415288881554648
0.6547749371438379,0.6623118523841179,0.4762484663079575,0.6802803526750923,0.6822409659221689,0.6387126871036873,0.6532990092011095,0.6928202691636002,0.7232822091438236,0.724210657346377,0.622686866640572,0.6029241564131907,0.6777078611899425,0.6618680324011887
0.6396046558439142,0.6344499381342266,0.4718532543538747,0.6610873534201724,0.6803175915122202,0.6410694031023364,0.6496727424763998,0.5959805499621453,0.5906240685451843,0.6135003675419002,0.5555270030252927,0.6082464111204021,0.624927978891322,0.6013769153985273
0.6160478725935845,0.6450862140755462,0.4600820473361138,0.6621579671065974,0.6603925250833401,0.6703078514633019,0.7260228897416744,0.6622646504612968,0.683804780629757,0.648135562869848,0.539683454323874,0.5076990292804368,0.5654608545864176,0.5888383335602435
0.6657858318584654,0.6586692955191704,0.48594003078871645,0.6823480308006271,0.6758559572986569,0.6398292918985224,0.6464663032808797,0.6405352372986519,0.6491140984234769,0.6819755999885986,0.6229048307045106,0.6695216562213432,0.6752054371370977,0.6776371017277681
0.6409714918096789,0.641063805872898,0.4780149698456093,0.6642508328460661,0.6676962447542674,0.6345153294754101,0.6510236395637381,0.6218665004635747,0.6310452860296263,0.6538784647429714,0.5676367491757252,0.5819865503367896,0.6180861585997894,0.607731688587055
0.6055014711967944,0.6293368524061597,0.4405360970307776,0.6503532659886901,0.6546589123985003,0.6533823114902731,0.6837454361788323,0.6730064482834494,0.6977296406489377,0.6735875729523535,0.5685703022101621,0.5089432040566694,0.6240150433037781,0.5936944355232362
0.6493367682230117,0.6403062032672014,0.46597681921211886,0.668104699556973,0.7082379493457911,0.6643761144861212,0.6891348407903795,0.6443697145831735,0.6569923492096235,0.6665543534658652,0.5764821987176028,0.6104995361361554,0.624158944693337,0.6422745224852151
0.6370784550914884,0.694586805069259,0.4993931491165855,0.7073848681477524,0.6724550599222863,0.6421057319070518,0.6406630274532572,0.5549556928760727,0.5547897149986646,0.5839659533891353,0.5507468466335942,0.5501005581363315,0.5724462560315721,0.572780105112715
0.686691236317798,0.6363028259571716,0.49036582697867087,0.6547302297774268,0.6262241162221998,0.6421884942310799,0.7163617523501139,0.7952970269280395,0.8150250215334773,0.7890686693623739,0.6367861124362971,0.7180548149661359,0.729012720181468,0.7420061303556069
0.5715922007570267,0.5845644941778425,0.43485336999443025,0.6378156097371167,0.667204059138515,0.6223130938897533,0.6257951708406393,0.5145427179598241,0.5359071060212792,0.5687779405804719,0.5331293984811368,0.48615266449086825,0.5599830799946437,0.525827887541468
0.6818117145010618,0.6940035161040571,0.4785507443111351,0.6880305195246476,0.7196072934823707,0.6802375260638527,0.6771240670977897,0.6933312667448907,0.7023883798317531,0.7093343206247216,0.6151310957863481,0.6087170680154222,0.6820585782553258,0.6842584987701902
0.6082844398208858,0.6203160889477932,0.4695411609090145,0.6619498480310124,0.6444211758827313,0.6551712710480786,0.690215493226692,0.6104989332237384,0.6051214977169257,0.6034118585680012,0.5297960651415977,0.5542994854197265,0.5534784193433406,0.5512287141325202
0.6446512698348007,0.6658954489281605,0.4717499378166335,0.6795843065578797,0.6578721724832522,0.603882327022822,0.6352062514922081,0.65333293865968,0.6844042215900245,0.6762516271394421,0.5826564627152656,0.5941261716952404,0.6374278455750673,0.6300921482699312
0.6479878739007581,0.6303510517544819,0.4730623001730456,0.6438589995968825,0.6744742877516278,0.7020799067743062,0.7362295920239946,0.6912704064283912,0.6982703961899148,0.7165114876071571,0.6067040781919109,0.5953424314318242,0.6782198939397802,0.6896588785916882
0.6398412248662503,0.6574031950280462,0.47205112100033103,0.6930426550348325,0.6914300179152502,0.609003562390973,0.6064768716421419,0.5659106957646796,0.5984159983009878,0.5988960050622074,0.5496028588898508,0.6021397858557079,0.5603524291788972,0.562225758379607
0.636144405920444,0.6434306710142951,0.46882666748104523,0.6579088357588978,0.6776581393004003,0.6586049636585815,0.6952452398697976,0.7125995703539635,0.6976565457461966,0.7027956574363243,0.5930777947751696,0.5178044939450347,0.6636887775860952,0.6527351459473404
0.6247461218788464,0.6389304489291991,0.46777084482605574,0.6636627213616283,0.633991730272921,0.6375901394639812,0.648392929147619,0.5739219443166816,0.58752154885957,0.6108955900663541,0.5644110724226102,0.6521256887460292,0.6184834956888156,0.5975072082917776
0.6466021485899034,0.6570196854386787,0.4775316332240814,0.6801068144354159,0.7020857551085758,0.6623345388987756,0.695439614190038,0.6817435745131106,0.7339543176146769,0.7083000913520637,0.5739795772257433,0.5523774692087505,0.6097585001667466,0.6281608516043663
0.6647852354167618,0.6281503488223082,0.46831167465574014,0.6536937797575357,0.6790751369852951,0.6646521608938228,0.6969634757883955,0.7013079565818945,0.6724545912411285,0.6829979670567377,0.6142713652849692,0.6124129253251931,0.6937598431036763,0.6713802854801129
0.6130362207952312,0.6486198785313576,0.4675957311190286,0.6672066178777873,0.6208638564182153,0.5985978149632354,0.6231946193875337,0.5281824604638529,0.5282385542327479,0.5808000267116086,0.5261783596180544,0.5469459666370592,0.5304706603408583,0.5698392249646053
0.6282323102446774,0.6770653735287127,0.47259504526259033,0.6881335697590882,0.6918592578409885,0.6714302351106531,0.6724030668033892,0.6951863452394306,0.7635396145162591,0.7199715103262212,0.6058951947284751,0.6112594948418562,0.683866537073277,0.6172173023376433
0.6482456832754804,0.6091948313538513,0.4708139519590849,0.6507838651334762,0.7327177170717959,0.6716025659126174,0.6759606312448688,0.6267121775857042,0.6099113616750268,0.6344137711263941,0.5598856988084258,0.5527310577777226,0.5970514206755655,0.6347664561125953
0.6365523685315508,0.638911774675849,0.4676630455290189,0.6587857046211347,0.5679397383592651,0.6259468887519649,0.713790313927134,0.6445130607602426,0.6269772467775846,0.6394150642421228,0.5775543804879376,0.5905005932741223,0.6204402408081887,0.612658414493924
0.6517582056870553,0.670971922265412,0.4788758026937558,0.6858403184577632,0.7233054862624448,0.6277659973267663,0.6197891306259031,0.6650547606884663,0.7224874120310185,0.7082668538549243,0.5858167516220258,0.6074699901793778,0.6460539102390481,0.6622213768695249
0.6152384384543672,0.6335047008629827,0.46301662855166553,0.6644794279765229,0.6746428983058408,0.6650315974213128,0.6600094308112688,0.6007574139031822,0.6391902056820333,0.6722279279730207,0.6052302601647251,0.5974126599702237,0.6628972940070775,0.588896939737225
0.653748998006157,0.6351099488967868,0.472886801122583,0.6570856743031062,0.6505274717820434,0.6530000821403074,0.7237427523000076,0.6755350251799117,0.6024698954924642,0.5836108076387193,0.5160996756497152,0.5330432321323936,0.5549739578460192,0.6155979993345094
0.6495735354392873,0.6805668696939654,0.47988375657681887,0.6848284439375927,0.6870195214966871,0.6547553506301155,0.6548669469267223,0.650036578400329,0.7005310854688716,0.7164605471391944,0.6061987400229428,0.6480916597642276,0.6421197075085008,0.6653728765381346
0.6162937319204413,0.611970249106051,0.4587420266053379,0.6597230289292926,0.6403460150922362,0.6148277047328707,0.6332824557238995,0.601722015560232,0.6471932341165924,0.6549356551297791,0.5898879236444292,0.5337762242075835,0.6539122223189076,0.5875717514597935
0.6320531333551606,0.6614273282757047,0.47166028047580927,0.6646691076546025,0.7173025923093691,0.6781003983955312,0.6933256646435906,0.6536799904566418,0.6483920678990499,0.6611807755427452,0.5599817056908978,0.5616361450965579,0.6211186302373644,0.5872983083665021
0.6671697706123066,0.6310083534129791,0.48013225315683206,0.6651002487252843,0.6729978584619617,0.6549779312287618,0.7058207226151152,0.6658980631744135,0.6515914351337033,0.6504818806875599,0.5861881127542515,0.6574883827423601,0.6118970858877827,0.6863552658832656
0.6304683151737921,0.6550704672820498,0.46460173072378563,0.6764464480104844,0.6308430625947442,0.6413838041505455,0.6576876759012178,0.6611422357748552,0.6921206492249057,0.6764712054740196,0.5655927673755523,0.5195258792191382,0.6255560515771539,0.6210948788176437
0.6187013736954685,0.6556571425066969,0.4678458095348465,0.6675618266582957,0.6827662362915491,0.618626346573172,0.6214239395868029,0.5644673439563426,0.6058585432944741,0.6518238613667798,0.5799490001027423,0.6804565212598177,0.6340868906067023,0.5736526793032469
0.6361776059840544,0.6451724765014862,0.47299334948245214,0.6676889699810655,0.6668298605798179,0.6407950830119964,0.6817329112295865,0.6689789638351776,0.7032926708797272,0.6783695391086945,0.5848400289382727,0.5992898670237368,0.6356973621805105,0.6411715848963578
0.6222747966650986,0.6459715945151148,0.4623157783897908,0.6724572987097747,0.6840586718310353,0.6439281862043978,0.6581139395262086,0.5997393877097105,0.6215234174005118,0.6255965465936714,0.5555466026671985,0.5664054996803229,0.6020348678097528,0.5761854901444942
0.6443716554981758,0.6406246570949986,0.47612851193623856,0.6622029217826328,0.6582751115735509,0.6468532962621112,0.6680390261317003,0.6553664749400571,0.6487666033384554,0.6603464656475502,0.5809049503558462,0.5883126076002632,0.6233201434780199,0.6335856236291154
0.6500592909122423,0.667069333127369,0.47469249795479956,0.671133924540197,0.6741297976824148,0.6526730184463946,0.6812808260880301,0.6407144934130761,0.6462707724411206,0.6778397406642707,0.5791939294348774,0.5861042674139967,0.6354653951134558,0.6529571947980254
0.6366478970643047,0.6466281457735129,0.46797937419017205,0.6744168391936415,0.6831560602799642,0.65060705632694,0.6711639835753359,0.6555043420854028,0.6842764743521933,0.6630958146406741,0.5807307689600599,0.5874131785524114,0.6262817848112568,0.599403967086913
0.6252162691133227,0.6138124607496317,0.4708856920628486,0.6607199078001902,0.6612125028340997,0.6400126600975259,0.6662302820213303,0.619710416698014,0.6400914838325866,0.6610197154593702,0.5860232052830346,0.594819279098434,0.6518776474240111,0.6335682323299392
0.6429799554917124,0.6590601312606423,0.4641560252568707,0.6573306385887838,0.654912022992818,0.6431679285344591,0.6598495925628365,0.63872615880957,0.6346283283884631,0.635705598305404,0.5439014343981643,0.5538536811486835,0.5727229019773095,0.5918997129301495
0.637118898657253,0.6573207081028989,0.4748458189079233,0.6824320571691797,0.6808059852663128,0.6472546742314316,0.6799898590794382,0.6682601004618871,0.6765820859540095,0.6897569819759908,0.6012658719948963,0.6104301235165038,0.6536346954771493,0.6491552023522205
0.6622782678807521,0.6618155997051804,0.4860046145810913,0.6794140105134757,0.6844563467221302,0.6529244479750458,0.6810756811893086,0.6568093992858569,0.6769008474664592,0.6652898017356769,0.5883799723947474,0.5985536446234325,0.6473404810741169,0.6595261781711804
0.6186590278848325,0.6170957763772588,0.46424678826840116,0.6567285762622511,0.6574861386010297,0.6588300830305899,0.659010514343432,0.5954109260088616,0.6227202495699437,0.6556127216108278,0.5673656785594503,0.557264873025874,0.6113010876138634,0.5795774876691243
0.6173336971832162,0.6528552419901923,0.45438633849128657,0.6590181890272498,0.6673288338958963,0.6353013072651122,0.6722322762017924,0.6547617872478052,0.6511506286670394,0.6247303588864633,0.5456495727553908,0.5655019281260635,0.5858743469129092,0.5946512118779687
0.6553832809812441,0.6091096142067389,0.46669517865256066,0.6430178792735423,0.6639983141173914,0.6471160630722622,0.6748606454868875,0.6487566585260278,0.6588314128260271,0.6949236239092702,0.6116869966992871,0.6087027121512396,0.6565100249078742,0.6343550273950678
0.6649325084727977,0.705421396436168,0.503093268856875,0.7169039992341208,0.7024977159183141,0.6593244822762506,0.6680328106525647,0.6695921292164793,0.6852707704506215,0.67009086013598,0.5933605430017487,0.6092376742373089,0.6694075349772833,0.7038903982063984
0.599501739168482,0.6274209912172746,0.4553141514586378,0.6626776006596106,0.6377921245806897,0.6245684206752296,0.6542892622809456,0.5837088021136045,0.6030387941484457,0.6154202220470091,0.5239930848540835,0.5244481376085487,0.5437912816959849,0.5229793451218684
0.6574715338263647,0.6280383047677387,0.4638822757658903,0.6438754854454106,0.7011261186313292,0.670927641702436,0.6962347690490568,0.6851428798522281,0.7036937646547916,0.6917301264259597,0.5948431728759553,0.6411677227016073,0.6527047710001893,0.6492051183268541
0.6356757009823762,0.6518350038369868,0.4732519278714237,0.6735885874800793,0.6558650847051762,0.631938993183505,0.6676535473940095,0.650372824176807,0.6406885865873826,0.6674139396438175,0.6034140365556332,0.5678698944194066,0.6642574854582942,0.6543339235900814
0.6305109195527873,0.6407772766666275,0.47128117835537486,0.6713728259666063,0.644762079685759,0.6585245802430097,0.6665560746080185,0.5950321753296822,0.628511069240597,0.6349392867975755,0.5541268057315851,0.5334081937407646,0.5894953175044261,0.5903959054075056
0.6512319414380311,0.6684980261605642,0.47602593168896234,0.6775036374240702,0.7222327674003992,0.6380621397987186,0.6443734969494702,0.6481121808749382,0.6604719603257184,0.6732454688299617,0.5765452598532814,0.6557870981472242,0.634742814636441,0.6382596166878375
0.6329364481245674,0.6294811351972264,0.4675135841672598,0.6567963976114815,0.6363433378106162,0.6558677107289079,0.7154470934455921,0.6826250069051225,0.6827004757976093,0.6682397644409134,0.572767697123079,0.5276548235641919,0.6097969583821546,0.608359123962234
0.6278917400067138,0.6388919717855043,0.46594547194167585,0.6633803903713766,0.6403088499437419,0.6360385303564469,0.6387247649949535,0.6207157771409813,0.6413343400809488,0.65895567757963,0.5940626197511234,0.6344208205515139,0.653358255968003,0.6345662378314363
0.659067212912655,0.6509767257154191,0.481881488976823,0.6772716432468848,0.7116107900556836,0.6557657660489781,0.6828073665596169,0.6242786882505673,0.6265831532631259,0.6571268639532384,0.5750987451211067,0.5643184250510269,0.6314139136779453,0.634294050590844
0.6261420077561363,0.6572556669431658,0.46548644290320457,0.6725684908470606,0.6786555818943445,0.6484212458504005,0.6709210171445785,0.672000939709449,0.7190541355259349,0.6687285726525978,0.5571233935197802,0.5758138434110313,0.5857817332156428,0.5967046473069436
0.635652848291581,0.6326036895190126,0.46643902446318647,0.6506271100826193,0.6637633026816611,0.6536414743956372,0.6719739447604339,0.6179124694715505,0.6003010952485666,0.6420209689638643,0.5869644860518938,0.5678616876190853,0.644972459869174,0.6119020195428686
0.6311421924845108,0.6320983542766399,0.4693323747058088,0.6737762208472963,0.6559924348752643,0.6278060602900398,0.659199856409536,0.6434598903291777,0.6480785724191368,0.6625431707428725,0.58277897637852,0.6022611215111431,0.6376935788059346,0.6444937755508957
0.6801643297886688,0.6866185575514201,0.48745026023071947,0.6863519407727781,0.6755448372303479,0.673350018401109,0.7037157848467414,0.6896547381565535,0.7145764254708868,0.6855550909797982,0.5746570892391073,0.6223966215176914,0.6202735756208075,0.6537748384283085
0.5746478877883532,0.6179422837548941,0.45235114483476857,0.6530450870215505,0.6709386886816876,0.6138226233161653,0.6341133058559275,0.5937548004138821,0.6278417581278303,0.6466506308613409,0.5672795521182407,0.527399628431313,0.6095728262838008,0.5749889369409211
0.6923179511479318,0.6363723519769492,0.478920895939794,0.6550558953486688,0.6663490403322077,0.6810485893937945,0.6814827794103844,0.6420246157836808,0.6283716676104762,0.657008619041943,0.5925852444895149,0.6208030112901552,0.6583101815569861,0.6347639094636054
0.6283131562360819,0.695402675769068,0.4819598011639875,0.7073780605111125,0.695685213522043,0.6221108918390053,0.6589682951745417,0.6457834341606151,0.653103352138505,0.6566105112630024,0.5738802030101611,0.5779716015666504,0.6100585695251561,0.6336641867917543
0.6092825122790971,0.5919868296109989,0.4513992163821635,0.6362059598080068,0.6518416736948496,0.6593296634569691,0.6960675907089364,0.6642535373299373,0.6977673205894804,0.6810573896550801,0.5659668363253783,0.5509918708371435,0.6162844045008113,0.6140044622559993
0.6565619804584664,0.6571533504090743,0.4764095742771006,0.6671272550555023,0.7017380266019962,0.6632830582854092,0.6671745547075514,0.6325624454825088,0.6482620066877414,0.6574561895529004,0.5957377978771198,0.6407212358554037,0.6466779270980847,0.6250554934123937
0.6397984150711817,0.645650824528347,0.47805544505037906,0.6739274949812692,0.6030475564034049,0.6141619366084057,0.6406410190353649,0.6088214560422542,0.6091618186028879,0.6452573198899163,0.5584213857449244,0.5503553949585706,0.6030141521563792,0.6137192245635185
0.649951305816804,0.6664037442239779,0.4693838894229984,0.6764912567508364,0.728173401302674,0.6598593635765742,0.661814721312439,0.6652663803588386,0.6824841584405111,0.6531513151631559,0.5745343459306463,0.5981371556491101,0.6206971597825378,0.6422152313756349
0.6108822024410488,0.6351036526177379,0.4621288602721892,0.6581459725014562,0.6539184034860624,0.6650776969675287,0.752205046092115,0.6456837998280395,0.6483338714472441,0.6789969973173168,0.5780760782198633,0.552445770130419,0.624912865583379,0.5915332250630139
0.6402586389002068,0.6192148050877553,0.4756511680100046,0.672756550466337,0.6698940394754918,0.6422874605207104,0.6143645278149605,0.6474175484780443,0.6880999414906468,0.6854206803559821,0.5881212817335664,0.5530516712187696,0.6584029316379533,0.6433557490951216
0.6693915597193958,0.6811933670904611,0.47884370651534425,0.6643354223434196,0.6662994245920683,0.6089027129757186,0.6243958224069179,0.6138495393190702,0.6125589538822452,0.6104054773709687,0.580531148874749,0.7150240172648878,0.6204788715243769,0.6442129511842016
0.6205469688672605,0.6223012311939021,0.45797852710531867,0.6648932977704698,0.6731735807948219,0.7083209670318521,0.7643997956766204,0.6770745666484306,0.688587323319548,0.6754192803407365,0.5587561939563583,0.509831895127294,0.5970969751015565,0.5887799155006935
0.6252036516968573,0.6466886718631089,0.47613399638916176,0.6751635526375898,0.6739312006803413,0.6011149530507901,0.5914614472333476,0.5945202792454621,0.5866214188624371,0.6409856229930824,0.5638547716000943,0.5217908130645861,0.6081489279325005,0.5961042833988506
0.6636441650548185,0.6491354675134672,0.47177633854269546,0.6648204974242435,0.6587495253633566,0.6626912084500876,0.7208447865092985,0.708674840011007,0.7524006430698457,0.7373529758592248,0.6349621978769006,0.6703068786134291,0.7249401640318094,0.717264478123351
0.6020863931120445,0.6204356044751188,0.4553404104951648,0.6453901323129443,0.6741267806917552,0.653818772113285,0.6570220829828878,0.592643358411333,0.5888783885540281,0.5753871588963283,0.5116253938614026,0.5064440985373916,0.5025086301497163,0.5128404902987749
0.6850004190331468,0.7256968699993703,0.5069549513589984,0.7207524953591506,0.6907660446381044,0.6366277535158373,0.6494863560077019,0.6424484516061014,0.6510358725815212,0.6767176674554723,0.6047222370386425,0.6689582330826143,0.6859852745253525,0.6880986171132873
0.6186332982321637,0.5784456686969761,0.45146356250044034,0.6351306349793936,0.6421707751085874,0.6512193097831301,0.6895177303869052,0.6630136100995307,0.6974527808064033,0.7095946297663909,0.5900996140403244,0.5732734813744166,0.6555213910917179,0.626919987963808
0.5985603332812812,0.5994462630302833,0.44697335227437923,0.6388224952274565,0.6869305991930487,0.6792528798932836,0.7081236253720686,0.6624392580794407,0.6452550926570436,0.6200153225570407,0.5442394830175867,0.4897628072064903,0.5634846137938406,0.5699407671088518
0.6847718491298838,0.7562681906857802,0.5094396270893596,0.7300877035076123,0.6781071754245925,0.5876998756668594,0.6073238259005623,0.5855568476400007,0.6280549424475689,0.667453819924664,0.6062073202208946,0.6777306644891847,0.665968783682068,0.6598539132840395
0.6537229791647051,0.5845908959936607,0.45804670245722856,0.6236875151003195,0.6597490770690305,0.6897365673614122,0.7023894011141844,0.6865298037477806,0.6873294798655949,0.6708044378780319,0.5684947756621762,0.5932081594920151,0.6175568976178414,0.642226666244573
0.5922059164024301,0.6471584934528696,0.4628505728087906,0.6811018522526614,0.6742113753751438,0.6363790865662149,0.6577816068760614,0.6327191769407903,0.6316762125430583,0.6681701051603873,0.5886803404009077,0.5384203852849243,0.6356408184961113,0.5999472759562442
0.659341856515697,0.6549073859167985,0.47351744282182595,0.6664611978893112,0.672943649799906,0.6743726804959095,0.7044067222592949,0.6239065133469818,0.6663637909328987,0.6242245031489834,0.5336006361812807,0.553769648345401,0.5847554434269325,0.6025242606184329
0.6305650046545771,0.6531804042495963,0.4751914862633575,0.6861485365003004,0.6676691967255589,0.6022951106523605,0.6385500132019024,0.6438750932188824,0.63656432959115,0.6807742254610208,0.594952344562107,0.635505076473684,0.6456726297641892,0.6261061505212198
0.6697887295454151,0.6359398952234047,0.4735607631517893,0.6369442568080972,0.6549406015757002,0.6618339140411446,0.6863980285246404,0.6889961755328157,0.699650902503565,0.6888065590676284,0.6167296012028463,0.6218854769863055,0.6710552061206616,0.6976700809396116
0.6016716585571629,0.6397968804414882,0.4671684521961234,0.6808699950157299,0.7035652742678489,0.6610378794839635,0.6469409156760066,0.5652346565945494,0.5793902420470912,0.6152639065797424,0.5465623105605114,0.5214433987830573,0.5726607574588615,0.5378971713059665
0.6103789755422582,0.6620502131469522,0.45380945369049885,0.6808073970908546,0.6502816760464541,0.6208187975159268,0.6549191139161872,0.6581848682361414,0.6903413737504661,0.6630501077802692,0.5550171449966167,0.538908894947702,0.6144577694455458,0.5867477251454085
0.7163048037480099,0.6313448110283199,0.49918284356751574,0.653463691104745,0.6764924404710295,0.6774433133502963,0.7400686337149696,0.6933713917712988,0.6688115251128629,0.698162879671705,0.6154290960893745,0.6830031938237018,0.681860636982253,0.7281048561070528
0.6062984376141389,0.6441401449959763,0.46030958272357436,0.6623274920900674,0.6525177188538968,0.6475257387852493,0.6617940044629222,0.6436025731543896,0.6898123907731714,0.6547732602085519,0.5577276731158441,0.5745432851997182,0.5930684175879756,0.606385219779248
0.6083175120163047,0.6461593385437453,0.4657263702398092,0.6797957802653676,0.6843442285983078,0.6179418851463483,0.5927010699177052,0.5805530041138092,0.6007635832812439,0.6402590019052369,0.5875561921094282,0.5443104974080311,0.6358377614788712,0.5735584323535056
0.6537732947641549,0.6684350370516468,0.47606095794934705,0.6816119343447858,0.6984430101447643,0.6603171885361524,0.7056611093384603,0.6224529018618097,0.61094968890763,0.6559717770641715,0.5634403199626631,0.5637835639546331,0.6035509296373557,0.6007302929003557
0.6446806423142216,0.5975462428335785,0.4563752272967244,0.6313561615425404,0.6177289618585304,0.643740368942252,0.7012553765717614,0.7267886391972911,0.7248352290001981,0.6555699903692436,0.5684749095438143,0.5984269106205014,0.626861719306509,0.6824023594662567
0.6555986478213635,0.6855527204153343,0.4993920625627159,0.68795099338764,0.7096950828772125,0.6755873351397966,0.6699157558009692,0.6197003919360716,0.685885088639511,0.7072639870293668,0.6096355800636937,0.6392301111173797,0.6659263100969168,0.6280923449986335
0.6333765281162239,0.645512787660616,0.46017219450438634,0.6738961659241075,0.6689161666351852,0.6278328311340999,0.6497509709307389,0.6277598859768794,0.5944245626295354,0.6298009606838759,0.5636794079870133,0.5765614834375966,0.6168497757179684,0.6187135879882064
0.6010622330734913,0.6204625736752006,0.44821526345390394,0.6559363624395419,0.6373972272987813,0.6322574046516214,0.6507837253533928,0.6196488456081695,0.6475316786242084,0.6345232930306294,0.5432841930706435,0.501449256302237,0.562135661637201,0.5470254023666953
0.6767461861945363,0.6677196304395843,0.49516005012644027,0.6759675016939356,0.6886238634891192,0.6592303528384171,0.6948136332538382,0.6625545710614025,0.6994286886634291,0.7115564244646696,0.6336739746573592,0.6552170595829189,0.7034629850452814,0.7060769326674958
0.6204990271235288,0.6183322847836541,0.4623823549764007,0.6532572648302335,0.6690439328522493,0.6503938765689374,0.6709874786087935,0.6502541054944468,0.6158295235924056,0.6269676436608418,0.5268402095911782,0.5378598854811627,0.5792799977207009,0.5733421581348167
0.6536798953874612,0.6738427922960881,0.47310999827704076,0.6818393664936458,0.6754220963311197,0.6541784533035637,0.6756060161034032,0.6354386869758215,0.6774659566313448,0.6865911493552979,0.6224314629174929,0.669983550161422,0.6870446639382526,0.6892920140147479
0.6188166714398625,0.6655979914481668,0.4733870229470849,0.6839783933845779,0.6872977532773117,0.6449877984055385,0.6506733024506073,0.6130262386204153,0.6356274261104033,0.617084379541583,0.5282275157862298,0.48310470331894206,0.5295799530223734,0.5416038727952194
0.644480706999758,0.562566948573057,0.4565232532321812,0.6154268869868158,0.6247365595654039,0.6301220364204441,0.6988393203050784,0.6933498205746877,0.6740735447354127,0.6903028973569254,0.580218315673508,0.5810699408423133,0.6640202359670866,0.6317710910860189
0.6493309491859355,0.7042525854928434,0.491332743935215,0.7129568604125387,0.6963291055428572,0.6654089472286754,0.6585556470267211,0.6054685439610361,0.6298914828242975,0.6599245952476327,0.6154430836576674,0.6747814634834585,0.6555118331205062,0.679918132856141
0.6307109403361383,0.6629621487194977,0.4612692208961478,0.6724853875395114,0.700821152031591,0.6472588400067862,0.6552977126648688,0.6529556601571034,0.6758776525511277,0.666866809635133,0.5651503895703567,0.573812431932631,0.6180520861963068,0.6030909694295233
0.6278678139386321,0.5990967029204867,0.46123752165783943,0.6346590326564701,0.6176733853404366,0.6439465214043475,0.6843704302177284,0.6397237990994656,0.6482784405347368,0.6386472712225295,0.5440921535459048,0.4460613516940986,0.5900814575090214,0.5686480104909417
0.665732157267061,0.6974629095375575,0.49641163847061737,0.7027745680085962,0.6946335225464838,0.6387176299903762,0.6780242787908446,0.6760460062103009,0.6854060938540293,0.6842104938636581,0.610484307589691,0.7618948834017802,0.6555568063607667,0.705422414696733
0.6187960654106529,0.6102478082193183,0.4562841249042616,0.6482196238591208,0.7016673680623806,0.6642062409110295,0.6554972121430737,0.5969022912751608,0.623704392219279,0.6740298883037692,0.5928518696892756,0.5368848535139841,0.6539263535560286,0.592664499505868
0.6245771346908782,0.629314731528296,0.45723870242542136,0.6527655069479855,0.6334749345665274,0.6413379556960626,0.6777855092839765,0.6360178830844618,0.6283501955319912,0.6067871307727618,0.5264541493850722,0.4862978705572553,0.5637418456489791,0.5777762042535364
0.6560200082860019,0.6850255476770708,0.4878304543218148,0.7016468218616307,0.6624163205880702,0.6367395408731642,0.6606799226433885,0.666093084148103,0.6915504305122745,0.6857975307059194,0.5934637353912676,0.6218160574661846,0.6345353157415801,0.642647108545887
0.65194776607868,0.6256820682920095,0.47554272972211953,0.6480493167330884,0.6902646797283961,0.6675360489485183,0.7021599812586098,0.6574233081962426,0.6900415210872939,0.7151271536233192,0.6078316759127417,0.6919454318624223,0.6912704925740154,0.6672936743343069
0.6213811184505439,0.6518144433653363,0.459997220477974,0.6720890341231166,0.6682588213058197,0.6346364378204442,0.6408961475838426,0.603595481047787,0.5748630407142002,0.5803884531455672,0.5372519830995771,0.4974935663810035,0.5553545411042164,0.5779557057438566
0.6387728546176306,0.6287237016830152,0.47107394287994886,0.6628068482389929,0.6653118810382276,0.6435289509430445,0.6702231849434974,0.6697808542642554,0.700386778253194,0.7018018989092013,0.6055358862811735,0.5896525644705694,0.6635458852420909,0.6449367415740418
0.6288146238177833,0.6645397074317032,0.46967595366551246,0.6786874558982031,0.6978833766356984,0.657745659988526,0.6747214672332998,0.6023467960098521,0.6357978461799864,0.6368597587404026,0.5544656352565525,0.5504367434275974,0.5958531393251333,0.583651771754636
0.651189670954558,0.6382042375291026,0.47498533458445424,0.6590820062174345,0.6226363744542096,0.6424643536271027,0.6844806113635988,0.7018464949124427,0.6899304636590249,0.6903152659380585,0.5887341900581851,0.642346199046474,0.6501162073549409,0.6586961556433921
0.6401932889998994,0.6429389730194885,0.4698836475296501,0.6696342575543776,0.6922678902754292,0.6507799281936524,0.6684366234489448,0.617824792515273,0.6265428035303574,0.648697652256087,0.5720849955130854,0.5802069588181741,0.6178379421551451,0.6238206279560976
0.6328856348795042,0.6502594316171977,0.46970364177141805,0.6695696772460374,0.6995702764908315,0.6577675740795487,0.6656175346921587,0.6300905975825408,0.6512014448890296,0.6395992978024317,0.570464202099181,0.5522989576769688,0.6281902472218289,0.6122266609423145
0.6368710065065817,0.6442942292558723,0.4755675188996774,0.6712379118719952,0.6307072923908846,0.6164578187723044,0.6541882700404597,0.6296481823484195,0.6555755201604588,0.6927465512839358,0.5946509096604004,0.6036678133712892,0.6238958094841309,0.6219642022926047
0.6484214377920522,0.6472863713466822,0.46900132581079923,0.6643665736007307,0.6712473911786152,0.6698000248315277,0.692507208027622,0.6755926045458507,0.6712692252073257,0.6502016527206573,0.5640245731753848,0.5993848410383849,0.622573058971482,0.6357331552379168
0.6148359128663964,0.6489940606476595,0.4638571393346287,0.6652388201721879,0.6921918375798568,0.6500206551361218,0.6531834743193683,0.6109219173137073,0.6256624909128009,0.6481415645623111,0.5732828045566316,0.5480549811268964,0.6327861852244248,0.6025004722752941
0.6596692839238761,0.6305262711671203,0.47355184621079804,0.6715126880932185,0.6549824758395224,0.6422823721956681,0.6903537395154352,0.6686683423963085,0.6854208343510744,0.684743747242626,0.5905460682089522,0.5683149638624211,0.6260594052733,0.6235170227863943
0.6450306105509862,0.6569761420532965,0.4775758293498434,0.6641492346689813,0.6762073525470917,0.6352988576065335,0.6597692730880018,0.637587951277597,0.6503585613265532,0.6430187362987373,0.5730515335531619,0.6536132381377429,0.6202792761914472,0.6462988025668334
0.6319175854781686,0.665209883977629,0.47517424862844104,0.683167107579957,0.6797859227640491,0.6709448562643445,0.679187312488712,0.6611350954981199,0.6608818729731258,0.682533855932538,0.5789183231238019,0.5803503440038089,0.6472255560825395,0.6311202083688081
0.6099026219090115,0.6033582142316699,0.45483880731003634,0.6482815149416761,0.6643452089230767,0.6384155178825104,0.6681719378798623,0.5856914558978089,0.6368847884548292,0.635574643728334,0.5687222136396086,0.5294726675719255,0.5937415621203321,0.5813131407953522
0.6561532445225812,0.6420133014255937,0.47065948670948105,0.6594395379325826,0.6503841235236123,0.6202114993377451,0.6304652658683101,0.6304874189738473,0.597611055015252,0.6252632197546042,0.5609321454722223,0.5665680319426152,0.6008166909057187,0.6166009779494208
0.6624075690486151,0.6994827291243374,0.4882864816014159,0.6996229347668833,0.6931487262257334,0.684785148543363,0.7380945034607066,0.7383789816832075,0.7737644138406481,0.7329809222032748,0.6022039672926461,0.6551919034839677,0.6882495182595448,0.667223866534797
0.620962315189844,0.6171220565840355,0.46254054740316836,0.6524279134074149,0.6834793005333307,0.6442631884945106,0.6482729760898451,0.574802677441409,0.5902889772832798,0.6380870418837945,0.5790706843882141,0.5776435592764771,0.6092308271515762,0.6104262808987866
0.617728228175654,0.6239844114550616,0.4638757067527588,0.6597517016746541,0.6638448033796073,0.5938285616158361,0.5964307687067725,0.6289375178871053,0.6382246610546548,0.6554901113597752,0.5852216140716763,0.5265946672240933,0.6263728549107294,0.6174361904809753
0.6672466274691498,0.6796663099379288,0.47735757223862085,0.6659588515667986,0.6799293992719592,0.6721442885403655,0.7354485165853198,0.7568524144890316,0.7503367718787958,0.6941910663878654,0.5947408247138993,0.6701339102103909,0.6628313427811063,0.7150887023992015
0.6296472849321122,0.6417889537470267,0.46681900579525293,0.6814110888016816,0.706608899645786,0.6584702769040253,0.6518690602925913,0.6212665720232777,0.6474621895931425,0.6651879681104179,0.5667317186886407,0.5197647437830533,0.6017106887859176,0.5678871751223498
0.6330651429875994,0.6194865507756673,0.4737062101582631,0.6685842545613697,0.632636423035553,0.6303174648201222,0.6522321357630269,0.5876525989453891,0.5971567961006037,0.6410317707327846,0.5812060326487771,0.596787674746493,0.6172135491528271,0.63646627096729
0.6338928855061934,0.6567386429615895,0.4614471335700235,0.6435307939904483,0.6765230798473751,0.6508188139131377,0.6946382386082871,0.6746332572901829,0.6814521142209711,0.6450256100095998,0.5576594837020467,0.5354582080348296,0.6241388344541751,0.5895999808325286
0.6522273618800556,0.6740995510529957,0.48602875716128724,0.692603698813896,0.7044781953267399,0.6659771637886673,0.6728833248995445,0.6863229748211361,0.7052063229222648,0.7092679293213251,0.6053405905830574,0.6921334883167279,0.6582079602866173,0.6918071499549955
0.6275079526832149,0.605161374074701,0.45488204489604445,0.6526006733235683,0.6278150660109639,0.6257761568417153,0.6441815771497877,0.5585151862926395,0.57205241110029,0.6234500746192507,0.5528031364323717,0.49712007196692004,0.5844457253254225,0.5431427707932692
0.634970821176521,0.6581467533676922,0.4800244254960583,0.6737105653191156,0.681574884644259,0.6551435241585081,0.6834541824851634,0.6637208551836129,0.6837070048145949,0.6699635780666613,0.5899706449539261,0.600864536300553,0.6524368797275539,0.6572384019320695
0.6440953550753791,0.6408502156691541,0.4688020508754084,0.6641134501054002,0.6905481444589845,0.6637183871296094,0.7009089012167209,0.7030306116577264,0.6950107641023469,0.6614455223567526,0.5705965544484494,0.5911686454887921,0.621091488233005,0.6356174981827438
0.6412983672694188,0.6569809472740047,0.47305088180136207,0.671309216815652,0.6442834602938393,0.6262318205054342,0.6306135427471816,0.5934088645708908,0.6320136742738997,0.6649215606278486,0.5798721222491551,0.5904794079724471,0.6091940620688212,0.6030323708067105
0.631923698703152,0.6453975707451255,0.46791110317048673,0.6711342158664946,0.6723727024903898,0.6448527177999515,0.6709522829281948,0.6215035097273666,0.6137015764807224,0.6577878449986811,0.5766431306218388,0.6017378986315469,0.6359011671549644,0.6449821786044476
0.6438057702902275,0.6419674449494212,0.47327888143381014,0.6659875834414838,0.6857686029051673,0.6600211518557487,0.6908236945344292,0.688530600013141,0.7117678087999368,0.6863725063029535,0.5819532524925949,0.5582432190293285,0.6460611898953411,0.6110886853442042
0.6298659012328726,0.641417920177001,0.46411944167301267,0.660951131583727,0.6585184374243254,0.6380143827896917,0.655501261934489,0.5939234413269504,0.6052271253716749,0.5734209186448403,0.5626287480134972,0.5830624459970293,0.5992058108675461,0.6027492682265405
0.652735142377656,0.655166197918398,0.4829726186050328,0.6774672295231766,0.6797805017654575,0.6491059437516891,0.6753376434228283,0.6735092231561264,0.6923602367362208,0.754462694826706,0.5880486512776344,0.5924211564871273,0.6344445061154032,0.6494208724941173
0.6261847058004526,0.6303003209377332,0.46251400817768124,0.6618871898507267,0.6774918833869855,0.6554135433711652,0.6750148503854821,0.6459948300129976,0.6637021300443685,0.6424367801681579,0.579811003848178,0.5732960142014127,0.6439985650921124,0.6100763190507501
0.647105842826873,0.6602755182547475,0.47295018868135874,0.671741915706875,0.6762745969743733,0.6528297805099433,0.6908835006274742,0.6603066114816021,0.624921105018025,0.6237349469347211,0.5696350164167561,0.5959481150124335,0.6121062499740593,0.6399440726984957
0.6253381463098703,0.6449048311781284,0.47107731803269975,0.6668569026621608,0.6482215255859872,0.6291880568917326,0.6221431247491637,0.5710033176678222,0.6554482695235031,0.6834081807759501,0.577982859511997,0.5890646412565328,0.6100039487324587,0.5921963592236649
0.6457841432290437,0.6341102881702808,0.47644298072861063,0.6720680385297884,0.6828609913593288,0.6549048938887182,0.6992372190172643,0.683440359479241,0.6828269057468626,0.6630138038099516,0.5645687680544949,0.572027971864341,0.6227739194655243,0.6476872221751631
0.6314094076502829,0.6573919972879207,0.4552279023427375,0.6503198126295382,0.6624929599361942,0.6461052311024768,0.6676940208899503,0.6327125183621147,0.6051451159875132,0.6470371319891922,0.6012151716229504,0.5554686230077475,0.6659546432958454,0.5790975118477646
0.6442645997681361,0.6259676542625559,0.4758129701909085,0.6754435552215187,0.6842522362254316,0.6555293306498443,0.6860680023566466,0.6872302369621517,0.6955909589184371,0.6757947049998586,0.5610242597390195,0.6101008575299498,0.5989072958163438,0.6566995614034732
0.6441431276235147,0.662201578055735,0.4853789627587646,0.6881699860435015,0.6632712937558116,0.6402748724890566,0.6333988575141449,0.594349959205987,0.6652183429004906,0.6634480619660879,0.5800034691526254,0.6253510176748467,0.6352154454674618,0.6529946246894118
0.6424802032718399,0.656255731002329,0.4629721698023866,0.6529462608452888,0.6746994920587649,0.6530238292528253,0.7127652140489641,0.6590841021823322,0.629998343112766,0.6632909164901963,0.58505064712788,0.5724891829231503,0.6225950415527323,0.6021031546329988
0.6207952847114017,0.6122393174130771,0.4606579302020751,0.6571443967012213,0.6581498487195635,0.6281082663533519,0.6386939686817721,0.6267278789097184,0.6340985941239314,0.6264432914342315,0.5629469944445382,0.534260007987003,0.612299788773646,0.5900655666268425
0.6599089661830693,0.6791622896723399,0.48488777411452183,0.6875443306428551,0.6765962111590124,0.6730852449988658,0.698128788654755,0.6785746429736822,0.7149137057898622,0.7095827793508677,0.5870917536723897,0.5549216326770744,0.6519823655773831,0.6541054709790126
0.618078713508215,0.6377484645392827,0.4664366927936966,0.6610277396925233,0.6673575181726906,0.6293942834341102,0.63642439282273,0.6052857716568257,0.6117750305531113,0.6359627903484246,0.5733841943472988,0.7053253017896383,0.6046974133957861,0.6273078425256029
0.6390208611602219,0.6193359477694252,0.46268344994891886,0.6574497853017262,0.681856279061548,0.657544337649914,0.6872131954652502,0.6390968791630478,0.6312236632897104,0.631977213976713,0.5561732049365523,0.5399455463290964,0.6011914802621876,0.5873262647943475
0.6565912875597557,0.6766681151714374,0.4922951362976578,0.6827310577836788,0.6570027173580559,0.6580035947258982,0.68702661835341,0.6720354287772429,0.7198082695050341,0.719962818960461,0.6205385445095245,0.5551017354465064,0.6857343379948622,0.6794070689821633
0.6182114071322184,0.6333840645065645,0.4402649526492975,0.6595090590609911,0.6653954239788212,0.6127920330025538,0.64712618664057,0.6160727229436667,0.6150533300808393,0.6264331364170346,0.5439544109176415,0.5583757315463855,0.5988932278051792,0.5536479327109869
0.6379127854245511,0.6167761531386728,0.4652436243523665,0.6500889109544492,0.668070229855375,0.6674762611779481,0.6780666007236189,0.6407067684255261,0.6422064227241178,0.637769125901646,0.5460224476025185,0.5478260346646695,0.5643051969207304,0.6083743675820679
0.6601346470028758,0.6950450263151248,0.5180725845727501,0.7089428698534207,0.6906383937048385,0.6463339282358737,0.6677265752508538,0.6566535138052331,0.6695611833755404,0.692857389231271,0.6380706262307708,0.7389342253849178,0.7014890203184703,0.7059880203576477
0.6449151578730089,0.6234495753761233,0.45701271218828476,0.6439357480328805,0.6687946034433727,0.6687325309247075,0.7055307073708864,0.6658746082040943,0.6886092282643251,0.6832958003987768,0.5791290152670323,0.573446251909725,0.6543803604893083,0.6613555581217101
0.5932907301756019,0.6528741449224572,0.45235780367142103,0.6847857582339371,0.6636702316138449,0.6046680721394703,0.6052774024065274,0.5543348847693885,0.5804398036335363,0.6000682461793003,0.5229876920176281,0.40323612715682977,0.5272738359377159,0.46598915450377476
0.6798917846106379,0.6270536640821135,0.4710836784149964,0.6317422430188443,0.6604091823208826,0.6859722259221027,0.7313448624853078,0.7510028011940231,0.7443548168421329,0.7320816966282758,0.6284403772402644,0.6855282160311824,0.7186070561301735,0.7535148079889331
0.5910440015041913,0.6263216566623965,0.46191616853554246,0.6816025536569157,0.7067218932925059,0.6364930371780189,0.623085668303951,0.5450599222945769,0.5463424369698872,0.572654302624764,0.520602207208365,0.5745255056078199,0.5402859964754789,0.49212869540128734
0.7040313016570074,0.7255764100883318,0.5180632914201027,0.7086920544404304,0.6269056020614451,0.6220970855051815,0.6986938428826073,0.7150967756196582,0.7450420689567329,0.7236891224072268,0.6064027686988522,0.6710413836614907,0.6658717531212787,0.7702633678137003
0.5932756098237163,0.571825586796172,0.4302184023036176,0.6177264596510019,0.6925650449819097,0.7009243068275637,0.7049549368195616,0.658542725133612,0.6867905709465119,0.6811506747950329,0.6065289185671153,0.4943045744201556,0.6597830284587886,0.5655256372646373
0.6318105208677443,0.6801477664064516,0.47417874509103014,0.6887572558259621,0.6848296179283315,0.6198344197221187,0.5912587830761398,0.5374829163652969,0.5442496891145903,0.6201751864008667,0.5598926183557867,0.5724004821137602,0.5913317704408456,0.5616431958158181
0.6528005664942877,0.620800875878948,0.47054810794399865,0.6550565331102269,0.6312721392003342,0.6094130245265463,0.6840602564444966,0.7038840409115477,0.6941551812837166,0.6463981076647838,0.5393700288047956,0.5980217742977386,0.6116325123624445,0.6753742208493567
0.6755180951516195,0.6645884494085461,0.4971280821481467,0.685326111685409,0.6898578216442189,0.6926511596810567,0.7486075439120664,0.6795135404677713,0.664793776076602,0.6734129739348107,0.6117001330655765,0.6567119646337981,0.6533773435593524,0.6751007940781301
0.5638754211367537,0.6145074095544473,0.4322222723776237,0.6451688747121597,0.6979958244857692,0.6727898743035543,0.6212684452440266,0.6200002220235598,0.7206605681622008,0.7206906026075646,0.5859038909771341,0.5443148493137769,0.6368174917764258,0.5483676551772636
0.6829511551242171,0.7047510431678878,0.49557904722227963,0.6989790111388073,0.6614526978949912,0.5842447867015279,0.6197113161861155,0.578018287261788,0.5431451662343556,0.577618548179603,0.5434572184805609,0.4641934026771411,0.5774842705535158,0.6026283798429561
0.6338972284915505,0.6066981931974101,0.4660073296403513,0.6532868586751518,0.639048649272022,0.6608850185836957,0.7053906267410827,0.655936909168485,0.6234679690459709,0.6378046183501476,0.5720280411248259,0.6782827737155401,0.6062550543060105,0.6479934929474221
0.6372119177996317,0.6271197742379976,0.4644327730995233,0.649418823431737,0.6788011797111924,0.6982182351701287,0.7518923785476007,0.7610211465820056,0.8446342204345263,0.7910609583567769,0.6364539667467899,0.6903558042990595,0.7535580645121097,0.6952767292831937
0.6594469549638267,0.6988883841137873,0.4872220137616449,0.7004775248386355,0.721736976807462,0.6184639842935303,0.6018319624645655,0.541197960127979,0.5419469820046539,0.6022948137604776,0.5457028033194931,0.4820610236223381,0.5552262137731716,0.5818676523460846
0.5962291202128039,0.6030772592973731,0.45390871330325416,0.6495353572092355,0.612979673430974,0.62778692676727,0.6525697640316591,0.6223417134667669,0.5994691924857384,0.5993703678918977,0.5474177231879256,0.5548671794152695,0.5752329848396006,0.5577678866448044
0.6402741181663433,0.6525743883787057,0.4674331453046438,0.668985365706108,0.6652310022258885,0.6470901950731985,0.6684046626290832,0.6338937059786643,0.6841415581881233,0.6601282974800812,0.5623678502878163,0.557141153928744,0.609029301422227,0.6316348865291674
0.6609742922677122,0.6346126601328455,0.4811402955198518,0.655343493842222,0.7109890791817517,0.6704241469718133,0.7129982099862703,0.7381652791687138,0.7372563355471982,0.758157579737841,0.6481654789212958,0.7012107637889331,0.7510442232620207,0.6994938512445026
0.6804650859103522,0.6876218806716875,0.49316356434205916,0.7037513784187536,0.6324242161646677,0.637040631633676,0.6757851065854711,0.625418768095039,0.6535746338078361,0.6751308819245947,0.5956057447878649,0.6152246235597753,0.633005014769701,0.6589758329101236
0.5627237265395364,0.6163783505948759,0.4267965784002019,0.6357220779236122,0.6999781942323606,0.6490832402371667,0.625350364552467,0.5477299456494016,0.5090786474013278,0.48549971775211787,0.4441838466173458,0.38926902978392197,0.4205929653243733,0.452305335120017
0.651249611850496,0.6535109850509004,0.4954103034393291,0.6891875572564814,0.6903089247466168,0.6500792944337036,0.6655722512098041,0.6867909307323845,0.7544049955246903,0.7818962093288085,0.6609712528115226,0.6501859874274873,0.7650678310562691,0.7059188813407009
0.6814001690329976,0.6285374141410391,0.4767001500316371,0.6460629669135521,0.607056006467972,0.6358157875369154,0.7240050642566113,0.7068198559628792,0.7080740520060156,0.7309195736325663,0.6310762787897451,0.7566654553756165,0.7175537588081464,0.7211127678705979
0.6276222098346174,0.671853022923716,0.46622095928081575,0.6894566357448437,0.7089590284939065,0.6602700972604889,0.6428669783072531,0.5670107143027394,0.5654475536833479,0.5412960501507238,0.49654683164765123,0.43823268097586954,0.48362675401166255,0.5267438707159368
0.5815805548133518,0.62566770025537,0.4481487245913283,0.656638028585307,0.6732949380116324,0.6334248123757121,0.6228679487642961,0.5993433089438647,0.617067790196247,0.6329327843321928,0.5507542694910578,0.4890418265555139,0.5931751591904101,0.5362121755359305
0.6905280556625538,0.647234067662111,0.49571420799674415,0.6669951156566278,0.6768156696604145,0.6665273026776837,0.7370391264675611,0.7676167382988792,0.7895653467470898,0.7804219475499338,0.6453847451625536,0.7256916750404321,0.7413399382264094,0.7581500091777964
0.6457113076929275,0.6398485467004101,0.4739005580212491,0.6684248979408154,0.6468873653091916,0.6466306138728846,0.6804289354053117,0.5826056956691155,0.5997448338198641,0.6321074488566826,0.5830889789173945,0.6464951197198026,0.622476023785604,0.6219266289915376
0.6251400646488998,0.6758438740970858,0.461796080188342,0.683607391153575,0.6632669469022529,0.6194473362807097,0.6049230332395928,0.6172684633999027,0.6016426014677423,0.6127267751587318,0.5406445943032574,0.44347578282478894,0.5827386471191457,0.580361745296563
0.6069123018906596,0.6156066426792988,0.4594979299198864,0.6513459733908331,0.7129471547359361,0.6780202841782819,0.6938555110362796,0.6362606985052711,0.6765749967902723,0.6448128136047365,0.5449719628018663,0.578509669334231,0.5739283289264067,0.5743543022587314
0.6591752968792857,0.6214663746087691,0.4824319846990628,0.6534870676118784,0.6228617127928104,0.6252466241072424,0.693062732750806,0.6898242070799137,0.6910240437500099,0.7280893584304069,0.6293475339074952,0.6829215601252755,0.6934597522307514,0.6758342717214428
0.6610337750364124,0.6962651798862722,0.47563576731808227,0.681783837114465,0.6779143129875606,0.6590808854626324,0.681489042096564,0.6383816784266537,0.6508582513614259,0.6600107499779787,0.5922994413142489,0.54860309720306,0.6598181254852414,0.6615309487124852
0.6160986037052899,0.6376194701491519,0.4639221785127661,0.6879238665717348,0.7055655522813402,0.6526572851863418,0.6421629900243456,0.6020937377552094,0.6135629360854156,0.592118816960027,0.5240692731210806,0.5398266576153123,0.5471188044611722,0.5559302967471849
0.6329699430676669,0.6311315372494851,0.46923678949587816,0.6482530566449928,0.6526782525540837,0.6394512989501727,0.6481771032655905,0.6488729869859324,0.6700458425752774,0.6897914355333276,0.5782436097406575,0.6236570001784563,0.6231773186814342,0.6168320145876443
0.6567919662800557,0.6448787947044318,0.479406801257268,0.6613028195725839,0.6528915835931817,0.6470498523910704,0.7328667025248481,0.7066492859961252,0.7162902518914221,0.7266307503349989,0.6373423287524497,0.600501847658559,0.7052062986447079,0.695662233904099
0.6259973599994049,0.6419218583760594,0.4609181706810107,0.6763614016534644,0.7054889166466947,0.667850350174165,0.6465763897134384,0.5845743449913169,0.5783908453127097,0.581889995215277,0.533181455193831,0.5252568428034032,0.5798890439038055,0.5656746010322219
0.6425956869195801,0.6603706624647105,0.4776969407836408,0.6658020233002214,0.6472538016130829,0.6339539959357178,0.6643240004272796,0.631209617339499,0.6585968021826069,0.6686524821585497,0.5614908370456013,0.6235330003262004,0.6016070285525632,0.6309983765724994
0.6343661425691279,0.6379156380661072,0.46123357003671395,0.6644397982903549,0.6700813645746729,0.6210448344835231,0.6348220661373896,0.6433898257677984,0.6706029930921262,0.6722760369275828,0.5859190073873044,0.5677429842721958,0.633373037684326,0.6017477727396029
0.6510875136072954,0.6479813744505729,0.4872171766092203,0.6887361192998804,0.6792420396794592,0.6754121175679595,0.7214129148317189,0.6866796681557825,0.6910759121846073,0.6914633888217261,0.6194900803909518,0.6305231154969537,0.6757746412991429,0.6843653170056591
0.6242251929946399,0.6277659130957999,0.45785975739385065,0.6431359296432425,0.64444326707002,0.6482969557637708,0.6791803756450273,0.6266647146699897,0.6255079804859178,0.6347786770511283,0.5362469210406211,0.5494749268977266,0.5943834068051902,0.5801439300381025
0.6471590038249907,0.6854001008087339,0.475220779068085,0.683964599122038,0.7018831227766995,0.6324989338864744,0.6245004343848415,0.572103461441883,0.5908290599675782,0.6168047710991066,0.5625078102926202,0.5309227346943386,0.5875575053947459,0.6060766674720153
0.6322414413004955,0.6344357782739132,0.4721573763220682,0.6674360599409286,0.6743623234020943,0.6597888668734945,0.6844569363493213,0.7392099637163111,0.7610562193135967,0.7367625826237377,0.6147996469368983,0.6589083032977316,0.6799465791650708,0.6544078331948708
0.6335062206788483,0.6003165503697722,0.46456680606757184,0.6551537326178015,0.6384166903222319,0.6436008615251579,0.6869078018079823,0.5953000785073914,0.6193507108618792,0.6305536128372825,0.5623170366891435,0.5791212364704112,0.6096987218725879,0.6076073246130461
0.6371501210513857,0.662159130825354,0.4704304083329182,0.6601130452131918,0.7072762850283656,0.662380160731301,0.6718498855415637,0.6341211558624157,0.6126256399763382,0.6175545825432112,0.55831021089532,0.5721087061572517,0.60562107099097,0.6027985701190338
0.669797269031765,0.7044185489830181,0.49194569097161084,0.7089686096972916,0.6509005398579198,0.6245076395816698,0.6474487017704692,0.661916249680272,0.7075186767210925,0.7345376867556986,0.6175714909977486,0.5893867115237433,0.6636801400920359,0.6966570419655007
0.598284552756318,0.573517666847847,0.4438906661696374,0.6282178065620404,0.6593774972322971,0.6552442679157804,0.6801227984426114,0.619875307808384,0.6347442308448453,0.6147170582671679,0.5241160255733871,0.5118048812927971,0.5795091827758226,0.5277342716364994
0.6482910189652823,0.6618753882660466,0.47949494750204996,0.6743576287005133,0.6926531973888976,0.6504980301848726,0.6757046558828834,0.6581466864443507,0.6414350375288167,0.666653394879201,0.6118506427848609,0.6902662422080518,0.6632864219002031,0.676332246166108
0.6536892695542289,0.6653368070585349,0.4775574517966561,0.6843558435274253,0.6519634940006088,0.6418849384592108,0.6564173105874511,0.6412656152850585,0.6760205440192245,0.6750205580746899,0.580508362681649,0.5434894724579572,0.6227983484760621,0.6270933427249841
0.6223033896585601,0.6354021564674086,0.4635926422440973,0.6524827291911415,0.6812786524729022,0.6559073010009054,0.6998888163051158,0.6449210649697906,0.6584615289448607,0.654001862154515,0.5555394211771665,0.5619346870661872,0.6015627529361043,0.591981951171967
0.6412938096053891,0.6460542706848847,0.47531114250275236,0.6750455811026415,0.6810671498344669,0.64447355382031,0.6491349862243833,0.629251333984309,0.6290767301730449,0.6534312185373576,0.5898447187168925,0.608008938593214,0.6418617021916995,0.6260233012579561
0.6541311340592073,0.6553055894124276,0.47176138310032906,0.6682458952627158,0.6505949565239044,0.6509608532255255,0.6847743254592544,0.6686857700625756,0.6747698412020877,0.684132558290639,0.5825389196535019,0.6099330684929943,0.6391669516923193,0.6685664105078073
0.6196463402032383,0.6359945816965155,0.4681815602560331,0.6748927457950645,0.6931633510237825,0.6483876793804689,0.6617972471085342,0.606280037235191,0.654496905106533,0.6384610149801924,0.5650652540666424,0.522907405899395,0.6040988319184554,0.5820261262951942
0.650035173123337,0.6439081351046341,0.4724039752538649,0.6534837737682174,0.6535687502529591,0.6456154710673849,0.6781239376643687,0.6774773148704003,0.6600478543924239,0.659978528902019,0.5824321230944453,0.6056138456559347,0.6414146846545068,0.6217778391161614
0.6270310716372154,0.6259363464233718,0.46689429556719,0.664742769999461,0.6570409610974299,0.6215075100643921,0.6512212208548264,0.6285926725318175,0.6328429515182719,0.6685292494422236,0.569909401404696,0.6246399230782973,0.6077849535200731,0.6346192160812113
0.6464517242974813,0.6954286924311249,0.4727813558413304,0.6897782965715458,0.7062173462132912,0.6809252199001898,0.6722908744067071,0.6071079411973265,0.6406165789352017,0.6540938669442348,0.5819495627113789,0.5365409706776644,0.6385871874741773,0.6188164210561987
0.6389400318533696,0.5974789434283732,0.47444521358567543,0.6529885106374148,0.6415540406974555,0.6412679269042845,0.6941592581172012,0.699943823589512,0.7156226872171336,0.6884161603158631,0.5876162307395534,0.5524500943502703,0.6338078619425862,0.6305976585467152
0.6305836590809615,0.640102870200749,0.4641167838420245,0.6520825877565044,0.6720729712626483,0.6441575271302185,0.6678562559114821,0.63518405971237,0.6407478923870564,0.6371285445569881,0.5616234478023596,0.6689916629709549,0.6106501922466757,0.6177781673368539
0.6462122975126434,0.7062936043761443,0.4782904533161818,0.7149963154943637,0.6975093915048931,0.6415460980682457,0.6329600468381605,0.5807592853275454,0.6004451425028546,0.654388122462417,0.5801181993091437,0.5703577744462739,0.6291161717413034,0.6145985463846527
0.6274359056628593,0.6122051548774433,0.4659345868306028,0.610868593115384,0.6643463072890573,0.6582907160193112,0.7021014813475747,0.6659022530313369,0.6647207467041357,0.648477246477348,0.5684130128987787,0.5381542940140505,0.6251650254784187,0.6193291961228788
0.646887237987678,0.6140025280798309,0.47000004046734317,0.6914160555125386,0.6228798006723262,0.638491349215455,0.6807656077102792,0.6823906436671383,0.710251576162414,0.6940258482123964,0.5880741103605034,0.5817425750065739,0.6212666316735459,0.6391290865020184
0.6424057013182549,0.6801918983622656,0.4739415676291225,0.6915971974298044,0.7189505521097054,0.6518722650764637,0.6470903384230586,0.6221317725981262,0.6311236597125559,0.662859928646782,0.5805128035501993,0.6296752101711969,0.635285198471025,0.6137625223131177
0.616148717586799,0.6459217684531252,0.4672145630004527,0.6508598139480745,0.6675596476314188,0.6438518008436637,0.6637735803607354,0.5872796492299346,0.5884006816510794,0.6075396681598627,0.5552455055325888,0.5477381143504703,0.6004424666081469,0.5959157016969809
0.6612007918382476,0.5958844554645889,0.4694251896351823,0.6364606607193305,0.6102125069123938,0.6351473594720666,0.6919188384779934,0.6716051489033696,0.7181508014123807,0.6829771403761433,0.5867336008783455,0.5712299847413255,0.6594772805424081,0.6548614244577161
0.6719597182017769,0.6227236747298093,0.48123180799854515,0.6662561082100317,0.6697103066605385,0.6240743805899315,0.5574760627163714,0.6471555999288835,0.6360321600455531,0.6669448963490636,0.570010283382138,0.5482395318327177,0.6133512778741951,0.5813525626777133
0.6287282669704906,0.6306416733607462,0.4629510434818255,0.6523048587354334,0.651491852079819,0.6635267638393256,0.7213512978436087,0.685407265955701,0.6979260169076539,0.6883518987381892,0.5902922420416311,0.5789509322467962,0.6536969556867246,0.6256074726738703
0.6199665304788278,0.667379495610162,0.4602087324239105,0.6611820485808058,0.6629122984600757,0.6317785079742986,0.7044704041076303,0.621202753982518,0.6422185673272554,0.6349760489729177,0.5813662188839953,0.6288424093996935,0.6252540168770437,0.6534021141276629
0.6519693941506638,0.6537623598374829,0.48694553955259373,0.6909275173879168,0.6842121380166635,0.6537253004882028,0.6441614806911619,0.6414957432066697,0.6435669949098122,0.6713244923959563,0.5717551782399002,0.5512156592605071,0.625651982298673,0.6281224533928726
0.6410779920314763,0.6152616449741354,0.46499124489424676,0.6539025473263199,0.6718501520052034,0.6584792025110238,0.6639245401758217,0.6413963631380658,0.6570411709176528,0.6598510654869254,0.5674258896861756,0.5443378464221251,0.6059781364449359,0.5895550018085195
0.6187584493244699,0.6354404860439091,0.45572632300551535,0.6461379123132754,0.6549320385700588,0.637044594404544,0.6676965606096741,0.6554200548126421,0.6834427817481158,0.6788721241869408,0.58944987571113,0.7106782736273056,0.647461440283475,0.6244505419979739
0.6719906865257356,0.6954635063044808,0.49727942990636403,0.7082105578216249,0.6965161119870077,0.6500295342649844,0.6844648942411653,0.6272466769609698,0.6275651527899903,0.6404450424280258,0.5789974483725473,0.48338350995903817,0.6226206049248438,0.6484976212788864
0.6159341839957769,0.6129252667677116,0.4596190081777811,0.660653749054916,0.6519567515064972,0.6384073739986326,0.6601228061832258,0.6302105317315313,0.6472330611853712,0.6559288660082139,0.5611758814611992,0.5682624585883809,0.6062811074314296,0.6040965829477642
0.6459714066427128,0.6641210718959893,0.4733339571228695,0.655041662028345,0.6778842567180466,0.6614620377992949,0.6797529365981766,0.6814699080746917,0.6834668693979823,0.6782818755987414,0.5920325184768962,0.6675794042841806,0.6606969602375146,0.6456272863370814
0.6236565413785701,0.6291863618009711,0.46046350999699504,0.6595759923556925,0.6794276108773938,0.6503048361990189,0.6733406707954416,0.6146481057769867,0.6427863420008577,0.6555860544181384,0.5711185435830902,0.5291444319441039,0.5923530656173802,0.5899769021551444
0.656138552717908,0.6571318481719198,0.48524098507216423,0.6940513223424711,0.657945079584779,0.6318810604092708,0.6535979330274901,0.6465934695637766,0.6642194326312101,0.6661198078656438,0.5830858992647426,0.5876068307507162,0.647830158941122,0.6391783075734114
0.6454995917247062,0.6396179385456562,0.4706298352626207,0.6565936486300661,0.6701750772487711,0.6536546117744639,0.6839040672730758,0.6442401321484383,0.635797851278266,0.6493927413511561,0.5706344508630236,0.6327885012090411,0.6366870034197948,0.6417817938366487
