EventId,ID_Chunk,AF3,F7,F3,F5,T7,P7,O1,O2,P8,T8,FC6,F4,F8,AF4
33025,1.0,-85.23465787444404,-85.91864966717294,-84.66907520839838,-85.1028121734624,-85.14968455919626,-85.70941583628924,-86.00908479670808,-81.96405676785325,-83.70818891345515,-83.38826848473168,-86.57264634902373,-79.58368047975887,-87.76089971490565,-85.25095647442528
33025,2.0,-41.92850077384261,-37.94331060577301,-40.01068233141536,-38.82557136376293,-40.17579579287748,-39.76709724585851,-41.94600960976855,-42.37880767229345,-41.539975096603875,-40.31104828521498,-39.4734160260022,-37.235401036328724,-41.61434477352857,-43.3375713683592
33025,3.0,34.77622157496258,30.67711852839431,34.1507841418494,33.341644912584194,36.97978515271744,34.326196698053806,34.938576873242965,35.07413341197427,32.713973459268374,33.39289231934326,36.814295873131236,26.81089672194234,38.39397476217523,37.66062746657472
33025,4.0,19.44592529949231,20.782004587544517,19.23492837239003,19.035098036108902,14.199263436917672,16.461814606293313,18.89765034048815,17.63533747527663,20.448398034696435,18.985265101197285,16.403106571992254,20.62124728000087,15.163970628439625,19.07264231911459
33025,5.0,-17.389436803085133,-16.662878385486373,-17.371700255145107,-14.147400747227831,-12.957570021272574,-13.270465378911506,-14.85101463159069,-14.93469742353204,-16.622752607413776,-16.138323771492523,-18.14609003347243,-11.866870263883765,-15.671617596504202,-18.091049813190907
33025,6.0,-6.035522450320194,-4.49397311362797,-6.649803125429319,-8.97845976468377,-7.045725266721355,-8.406573478439384,-10.120830030632543,-7.705791341786323,-7.173810399505275,-7.5741125590907465,-3.2534278585073153,-5.812148294637126,-6.153910613002374,-7.595045889843217
33025,7.0,4.837328814478479,0.3703814256225293,5.829452453771186,1.6386210519764113,0.8454423544508778,3.739068790594974,7.069511832676383,4.542632969203584,5.176001288063002,5.92784939695936,3.439518208918109,-0.8184980583693857,4.078389612131595,6.624130515922797
33025,8.0,4.753494256510912,8.1894542478508,4.755304034057076,8.381557439545187,8.624651154508257,8.407800457355673,5.946081832040353,7.338453199327088,5.305000281320108,5.205472046487301,4.603157960562047,4.237752692837425,6.360989612539338,6.420147180997429
33025,9.0,-2.183732358004775,-1.553858257540881,-2.2101330799392542,-0.3851268962067209,-1.070938126302316,-6.602904511041206,-4.964143216827974,-3.628060116698915,-1.7325302252304162,-2.5318576028282074,-1.0239883230758977,-1.1416811816110979,-3.418157961626804,-5.412536319220649
33025,10.0,-4.135725724551598,-7.621074328647495,-5.665253652907115,-7.259890065662731,-5.8961755836384135,0.9186491830117767,0.35359513737293824,-2.788544712851575,-3.3203863740451247,-4.245364925710835,-4.91555918649674,-0.8094533876460979,-4.260358175400729,-0.9450102354893133
33025,11.0,4.05056287641349,7.983769109034849,6.961293520293225,5.513863793507639,3.6496885908279495,-0.9621350695626525,-2.0534984965909473,1.9289667093044223,2.0115370141430056,5.611248965374212,3.971463049560011,11.284879239329516,7.123842792364254,2.6868562836059873
33025,12.0,-0.13469508610295833,-5.2182088913225115,-2.8057867112528783,-2.408765445033506,-3.383421122986295,-0.2765700219078724,1.3896052095125349,-1.5040399558102102,-2.586522443336822,-4.8829408583378004,-1.4461483751264659,-15.995049832403499,-5.095136237201796,-2.952477724469656
33025,13.0,-5.126812370607237,-0.23635022606485734,-3.778910345210612,-1.3002203053096366,3.5081983870484983,1.6301684718111709,1.2812074995336928,-1.4282112395801363,0.43972541600149384,1.2060387229780325,1.3638954697539667,0.5931553707618775,-1.6553131605396345,-2.2257205329232264
33025,14.0,5.414198814671053,2.8773897700531847,4.434409942010085,2.6864980262161673,-1.1841751635555902,1.6259551530805219,1.2669089092906773,7.351291049618286,7.25585489747116,4.0120607695141,0.4709218922151557,11.102138777522459,7.951159886380765,7.051956706525097
33025,15.0,-1.6809414367192446,-2.0249731844929855,-1.8735545094033732,-2.5110768304479727,-0.6452212754295239,-2.8803423931681635,-5.085622790457659,-9.063924723525744,-9.964592385606348,-6.33803816154494,-8.61325815157669,-10.228245067017006,-9.069081130459097,-6.800979123828856
33025,16.0,-0.195147402157815,-1.5980065175454037,-0.8380314447679531,1.0387874926456178,1.39933169074801,1.7603315906554862,5.537386195403386,6.894691399862136,5.605035650806034,3.827253875256172,7.946047433650225,3.799320482638965,3.5214278567764694,4.318292936571726
33025,17.0,0.25619127262019603,6.800854840432006,2.089376956096938,3.9470647793879365,-0.6839636958362192,-2.5646156042464945,-5.338198165951088,-4.196578081644077,-1.4398790623495898,0.4018286816045844,1.2096024806742705,1.1291043242134755,1.7266949255575028,-2.2070693044530465
33025,18.0,0.3702350970769608,-3.4936203990706822,3.536100863667354,-0.9214237515083425,0.22232859236503089,3.2100108513369427,4.886964097916177,1.5434153330705556,-0.13650258726223186,-2.3282701210154606,-3.879849410415364,5.527044961395976,-0.47579186640022186,2.5588954864827826
33025,19.0,0.5588386537097527,-0.4240006945597301,-1.884838852639291,-4.283473333179735,0.43188982158955014,0.9074147278142632,0.9812972144964647,2.2902439242853454,1.8135296118396838,3.235872254981736,3.8409270868099874,-6.967687139932824,0.9328867086824282,0.081674343424325
33025,20.0,-2.6862346150878977,-3.2245116527038995,-7.113881046877111,-0.8584217889235823,-2.934887762541514,-4.753881047210022,-7.38604007401754,-4.366789006052905,-3.32138157288205,-2.6481178595155086,-0.8091501058987447,-7.033317813918416,-1.993096186082834,-4.992148413362578
33025,21.0,2.440399576283763,4.327493464607699,5.968782132159724,4.898134333476712,0.5419478330174101,1.606832154407062,5.320636998135296,0.5232583389593479,0.12244264455457099,-0.9712002167313649,-4.673387406123357,13.137299933222192,-1.4822922805943826,2.569950597352843
33025,22.0,1.012790021533835,0.643761478990875,2.2760785620999258,0.673004546849139,3.7286866352603845,0.9988598932912574,-0.6303032496930179,1.8337949931380066,0.8348418288376678,2.390620938343371,2.6351855014453385,-2.7563634422597723,2.3825818291540735,2.9162413972583074
33025,23.0,-3.6113519297647407,-3.998901060576273,-4.919417655482263,-6.794095378165952,-2.386427407329073,0.19121866961987166,-1.0520136691389723,-1.1941332632402037,0.7298710779543924,-0.8299992314666511,0.5976148519093449,-8.1017371950344,-1.4466177978205188,-5.211800209130757
33025,24.0,3.7811811841699843,3.597433518554613,2.48852385267838,4.489284356423507,0.7971661868225866,1.3084824277771752,3.215653237893065,1.408858974100898,1.0957738331761426,0.448942190905278,1.069322913157773,7.94447036159276,2.6703721594141,7.320057132705735
33025,25.0,-3.9195631774002564,-1.077162429534873,-1.6164398388514485,0.9190855042495407,-2.830003546881855,-4.25715858945799,-5.513630036090557,-3.022422202368361,-4.607268330016936,-2.8932818224720194,-3.916712570018941,-2.614239997932806,-5.698593288091345,-8.163736285654096
33025,26.0,3.8796782581518805,-1.7694780931007479,2.824456999838958,-2.390139143131904,4.986679822341067,4.255773731954974,5.122574753719334,5.256189678018838,6.630521193420353,4.485633546243278,5.033378199292443,4.80167273819314,5.48117302523265,4.9656982964116985
33025,27.0,-1.3302410736057197,3.0266470147851443,-0.8335220808465138,1.832345005520402,-1.6713981761699905,-1.157360325963218,-1.964758525248513,-3.1637748967176904,-3.636120278250239,-2.7804742304720733,-2.182189269687612,-8.379122980815463,-0.7202284611420708,1.418627443822725
33025,28.0,-1.2094439063969773,-2.061626437056713,-2.3987141557106675,-1.1528662713447737,-2.094630436373315,-1.1920246054958348,-1.1854063066844311,-1.2180286377748537,-0.8541390373557363,-0.28860363125257393,-1.4819821778059108,0.977485597400058,-0.7576782296212023,-4.20327703170496
33025,29.0,0.20539607311944508,1.1696283344953535,-0.219166633107303,1.2599181636054873,3.231763636531845,1.4885794606598388,0.6653234709712557,0.1953836818445822,1.1751406527157258,1.0941901219425496,2.795888615899262,7.755911144840255,-1.1278590451818502,-1.0847002406414816
33025,30.0,2.150339043226989,-1.4058547750170582,4.305199584950255,-2.20049943514055,-5.596524427957977,-1.6499930736284654,1.6921229785769931,5.626119021974642,3.199255731191048,1.4731775186315161,0.04904933917856269,-5.690520703029165,2.0604362395103983,6.752963966754301
33025,31.0,-1.4627724933738016,1.974081046537357,-2.841050972149816,1.3493841796818877,2.021396348660886,0.3877565661923619,-1.5544854749598933,-6.672891771579543,-5.484968369193517,-3.109155957539077,-2.0318810804148946,0.6821534921068029,0.007646394223087327,-3.204594591476404
33025,32.0,-2.6733617984156623,-2.2786157420019997,-2.1984312023513795,1.1644444845983877,5.735970726305069,1.2504622721413376,-0.4886894299691562,-0.5148595761727179,-0.42493603044812644,-0.09350174406483092,-0.5092417274161711,-4.61590582977842,-2.9059308724142383,-5.082965754028322
33025,33.0,4.280271859925289,-0.04375243173457122,3.3813712821682174,-1.5491750683014338,-4.207745114822828,0.38939109688494256,3.8557347807632993,9.327728914926478,8.82376000354525,5.136352873196106,3.8578342184142933,6.549532666668124,3.5149536177938465,8.061591901609305
33025,34.0,-1.6569138726905486,2.3657615101593095,-0.15732753217173467,0.35075970388740174,-1.333202118773503,-4.5128720135063,-8.757515098840969,-8.343031199522628,-4.95568826713545,-2.808688622483025,-2.947529251923161,2.2263807936407964,-3.6252226003363575,-4.02354843238632
33025,35.0,-0.6203489328137906,-1.3844925612772236,-1.0628387948842573,0.5017763905542552,0.42701618936361285,4.8622583688549135,7.129532804125226,-1.933057957132121,-7.661201922484143,-4.217431962194116,0.19556247610357858,-2.833223669784587,2.434626349050248,-1.380636276651373
33025,36.0,0.8116012065695699,0.3368266786032734,-0.031330258290442003,-0.6207694864841145,3.282975200596514,-1.393893804044879,-0.6649625132804715,6.615682369083153,9.96544490728768,5.936511224247777,-2.1477234100307996,-4.574080697648284,0.06506926310929018,2.591322325897732
33025,37.0,0.2054904863809277,-0.7769108637885687,0.5781733588553415,-0.09429557159124968,-3.1464179545344706,1.393040017514597,0.9460898052506934,1.0195948844995186,0.7460276886565325,-0.18273622762439246,5.887133944684379,7.837144246615328,1.681356866490642,3.18628211622341
33025,38.0,-0.23482276981253136,1.9103741288117142,2.448345384115594,3.0935195227713166,3.2932475323679142,-2.91628173863214,-4.453671387059362,-7.979856547127017,-7.701306820968902,-5.043705379583528,-4.211833009402561,-7.259025311833948,-4.514286280565919,-6.111467880178129
33025,39.0,-1.5181228279161836,-3.630130291187033,-5.09091069825628,-5.433336773374549,-6.6653134395406894,0.0154743590919324,1.9744199498299793,7.185040874903933,7.611905883165452,9.011585870847096,8.035015900107396,6.189022269537581,9.623912665733386,4.254915447520254
33025,40.0,0.5173445029957122,3.1339387699065675,0.7529380664846421,2.8459580646462435,5.449467232315492,3.1634918926378965,1.1918627069103458,-8.104064506416357,-9.177336492640642,-12.694244123741324,-20.188710276916815,-4.48505928017423,-15.20621558815608,-8.160491795684859
33025,41.0,3.826752357642569,0.9751098811234513,5.090112156656065,1.11480142353631,-2.4073973573873424,-2.539377378747673,1.8302412091648144,8.644962427372647,4.797898352791112,5.782412530030427,14.963121988894745,4.254417714362425,8.200195450236194,9.200282081572542
33025,42.0,-4.299395813507509,-2.732796295127816,-6.681526584091014,-3.3215165149900194,0.09072775582595938,-0.5662845344856784,-6.575957027399642,-4.283019027935094,4.9248492630763465,7.346080279261059,6.384431805575613,-6.742035634404562,5.766434366475391,-0.9246999889955418
33025,43.0,-1.0952217402803726,-0.31011020347316887,2.398680133035704,1.5558883827645786,1.0631539267907648,1.5514065129591756,3.3484999268675146,-2.6579262598375024,-8.633392461337653,-11.182450720208571,-13.49276920734637,1.7853820786219856,-9.697276815815759,-6.841924822134718
33025,44.0,4.146850767388049,1.5066015831436275,3.63144535426456,1.4209955467113105,-2.2171293375436854,0.07808981676801707,4.39068019737195,7.752325727806024,6.640807467271287,5.003399332177285,1.8650524589362192,3.869592814111641,2.862119281141762,4.901603019431011
33025,45.0,-0.6930882861650396,2.0411343908313953,-3.004259878583131,-0.20948173282735283,3.30488065577941,0.07556173264913824,-5.157080707810131,-7.602940378511882,-3.632946177522747,0.829504319383453,5.933109920117019,2.261676108493198,2.849842677634129,3.5908657031860294
33025,46.0,-2.3241084076255554,-1.9619792604679063,-1.999363326063289,-0.5159674912179781,-0.40757805559254834,-1.2650744384923236,2.219831235545456,4.413705262145108,2.629383336979508,-0.35687512152303213,-1.9313296746238073,-6.864645063641152,-2.087672175137264,-6.594545308849693
33025,47.0,2.684767674040458,-0.9322858172099586,4.5118960651958915,-0.7478061248759857,-0.48939116338714683,1.10873535350499,-0.9750710781184537,-1.3073173085801244,-2.7752157591808313,-1.8511480399151168,-2.04753950012746,2.3833056727748563,0.7461371387808917,3.7659979326240602
33025,48.0,-1.7361416177541287,-0.5039297258396829,-1.170537431826233,-0.13476764189527302,-1.6666526013731406,0.8604712327605135,0.7550524501658771,3.1632902762581274,6.158401705925048,4.596141349154006,6.18499595248343,3.444186667635254,2.8345203059566195,1.1974669420942803
33025,49.0,0.04174261706937443,1.7961245908064534,-3.34502536958405,1.3032052654266835,4.011388933158759,-1.554063875617377,-1.873872573510404,-7.396659567282509,-11.205877085208527,-7.573814554563153,-10.147113431596807,-5.398161870000781,-7.749095152890611,-6.441823617599304
33025,50.0,0.9685306197855148,-0.48320130190926136,2.1504365493212028,-0.6786683244586484,-3.4340709657071606,0.9562788579549313,1.7141322323485078,4.614659172883151,6.280130912454151,2.7533093509991318,4.2736254936022995,3.260749573344988,3.976860202134848,4.396922793538586
33025,51.0,0.49579725733799407,-0.38559594284035725,2.3850007749200195,-0.16429942798108854,-0.1552702429003432,-0.39536191205117177,1.969819002413331,4.418531196527393,5.500038096870892,4.513122928964254,2.480369787063232,-2.207464081190622,1.5096465721602037,1.8789728893952677
33025,52.0,-3.9798692198990295,-1.33810237964477,-7.0307468615698845,-1.78508439735171,0.7642045551773009,-0.9906759790250312,-4.755866141313312,-8.22987753001102,-9.157063466386692,-6.35464021928486,-4.587128268203493,-1.4744895576736852,-3.878515382969976,-6.637894363945463
33025,53.0,2.8980202163936717,1.398349415378629,5.607406111062637,2.962533501646007,0.8094905517011846,0.26420388512466175,1.8472758742604256,2.0854726888553543,2.2417794519130254,4.441119299735124,6.469434931096899,6.143879409237776,4.67126460076209,6.442814948058263
33025,54.0,3.2088912385275172,2.5172305470771796,2.0727976573864915,-0.3577452499087066,0.29289514780082015,2.831187324848198,3.776558044248464,6.476602739492407,4.068697251413742,-0.5905394972311804,-2.095084360332333,-0.9205305006992539,0.10938028684760681,2.1359235109085013
33025,55.0,-5.720821764383896,-4.936364176162119,-6.5844660807252104,-3.4862843891502173,-2.1724931343809466,-4.284677778459098,-5.54616275834562,-8.79955574313557,-3.02475538304936,-1.6485275836076738,-5.058517942709784,-6.515240752999613,-5.175431160930533,-8.599352559134473
33025,56.0,2.7091312616940257,3.360131603257617,3.3533715413813425,4.545474842045678,0.9531830315347278,2.8378666242948114,2.177474070869767,3.266614414918525,-0.8161729108482909,-0.7661355642447489,3.086662742464487,3.411220769792397,2.8713797109122225,4.423795809926077
33025,57.0,0.5940275840541993,-0.08900118869475548,1.9009315111599498,-1.0335867807366412,0.9436795420502371,0.7348224949281423,3.2215959482209726,2.8468510630745243,3.6264100086129147,4.744743005767216,4.278213199202671,6.017943086228094,1.975799297854124,2.089286277679907
33025,58.0,0.9427011220153929,1.8986815312495793,-0.666515622731243,0.11808825611058538,2.6630920601582027,-0.19589722921698183,-3.388411736817968,-0.9169673115668857,-0.12104087652753037,-1.6844341469111797,-3.8013082593407077,-6.183146325938825,-2.5324046167416334,-1.8421087202293052
33025,59.0,-3.1594453834218186,-6.526194480526264,-3.872017657495661,-2.185534131885145,-7.903082174804023,-5.112773749682162,-3.6751952004487087,-5.894401229241613,-6.436856104207983,-5.085284047165505,-2.065643332862475,-4.528843786636646,-0.4633123831047534,-2.2572672950508235
33025,60.0,0.07718110918128929,5.85098525448635,4.994088315887971,3.4299934674517765,6.603547611273044,4.556798823819154,6.100940529095215,4.409365653985795,2.450974978290347,1.4890958711809041,0.5170632111312266,7.4866368520281625,0.740100386616902,1.8222886727844099
33025,61.0,2.99469056236779,-2.3421477058365987,-3.010374461659648,-4.062330795300237,-1.1485129935908276,1.9549918925757517,0.5559864890471253,2.4866881612577636,3.8123983377921853,4.615082564573729,3.919293719751881,-1.4809410440373298,0.4993103550098752,1.586970248504663
33025,62.0,-0.8827113510864919,0.7647721181675919,2.341000145642063,2.983626845638824,0.3477282179438106,-2.780495695697905,-2.0059274393962596,-0.8522533299196056,0.3589019569936802,-1.3461878783097951,-1.7141904267052226,2.3215979036166168,1.709758834306573,-0.01856574775110431
33025,63.0,-1.6436695023091197,0.07982243785172116,-1.7130081774655146,-0.3044678019241829,-3.458364696495398,-3.0752983545643815,-3.251551584781751,-4.722845160890241,-5.5886085948541435,-2.8620337765292305,0.7031239452683096,-1.801667714494318,-2.2249679738582557,-1.022372694072974
33025,64.0,1.371335227113775,0.7439930917352982,1.0997223110339895,1.3150996249988047,2.439993637838615,3.548161845806437,2.78887505015204,4.389289319979337,3.1268632178027076,2.70668939540041,-1.052347613865951,-7.483574435965348,0.5559189355438043,1.4882686071976252
33025,65.0,-0.727779007157725,-2.520211382640884,-2.041705919288738,-3.304789443404342,3.9126907512022413,3.7803709809021697,3.8026618561340406,-0.6723690641417406,0.6675969587085575,-1.643535892849819,-4.421167267311624,9.527638805620445,-2.3863809756226324,-4.341112129936537
33025,66.0,-0.1892119632979039,2.757801082847564,4.171682841433672,3.2183678509230838,-6.51227708963777,-6.717777955583109,-6.869201563685021,-1.1246240447066356,2.4217905742173933,3.424856245241372,9.425225271043402,0.021337205446830154,6.167956848355647,2.6585591339928065
33025,67.0,0.5330073064128911,-4.393066680698539,-4.09123294494114,-4.238198887090352,0.25096612543595853,0.4869153786342828,1.5303461912749015,-2.4525529995073576,-8.304551038612885,-6.087229773142809,-7.378744775968887,-7.482278309074491,-6.670896889934944,-0.5567038982646793
33025,68.0,-0.8285251058809351,4.0053887254209215,-1.1649955558470282,1.7343546042165734,3.0566890599685053,3.353000740377432,3.8974141769765716,5.683679655506342,5.89201076312688,3.0370743606907844,0.028435002594154213,2.799999744253739,1.8427258207003625,2.182281184011188
33025,69.0,2.2128725091743178,0.04363082215569136,5.240919939907005,3.4494757922359156,3.668451882845428,2.23441531793101,0.03760002752121139,1.023952646121895,6.1512407855428854,5.782275486936385,6.957098064740695,8.295810231589794,4.733032867230939,0.480887426705209
33025,70.0,-3.3481747304683793,-2.026990039631766,-4.058407549841341,-3.943678480077658,-8.982198710450525,-7.047972559198737,-8.452361155053335,-11.303527039262502,-14.748327158069866,-11.430906216291302,-10.569751733673236,-14.948652010122977,-8.745470390845835,-8.088009018360545
33025,71.0,2.6458981691021393,0.7021374196037122,0.24101923258852054,0.4190435437547819,5.509846842970315,4.201345687911999,9.123246364253482,11.58657006350781,9.953777497602022,8.545270155929117,8.862465018094607,11.972101192558082,8.99837096053836,8.793216228205456
33025,72.0,-0.06926243286928013,2.0336397801090733,1.9642496250051558,2.6397366601291914,2.3315576238197586,0.12400682812588926,-2.2929678357713073,-3.1473807568654593,-0.12751174747313954,-1.295731104824263,-2.6658073896975267,-1.8054761994620208,-4.67010004563225,-1.8369824228675498
33025,73.0,-1.7364554007930586,-3.675012262308339,-2.664797037516589,-5.106426306478838,-6.065571854742238,-1.2577926223561633,-2.1547189637265696,-2.8212682502051116,-2.394217510344749,-2.3561127822539305,-1.0014381665209342,-9.816494195380066,0.3416798632904481,-2.642775366969822
33025,74.0,1.0326576242647647,4.006248820671281,2.0745621692310863,5.214978188145352,2.1343875669599512,1.5248979537568061,2.6336370600312975,1.0860671082402824,-2.5860567569597386,-1.28407990763872,-1.4786340591922382,6.102593054711356,-2.821474420019527,0.2886973734378735
33025,75.0,-0.5155109819212385,-2.7400033110138047,-1.2221817626607248,-1.3396860777559816,2.9735238023524104,-2.4068142327374176,-2.5093109323112053,3.0256158748219306,5.112247244288103,3.7552085609589625,2.2290627217182717,11.74466812678586,3.661072454353757,1.9207388158938485
33025,76.0,1.8426298364497349,-2.545024277111594,1.371975710981431,-2.6039260812675167,-5.779607511451861,0.3534944271669467,1.4188426015066682,-0.7433243222325068,1.5173793941661629,1.7820375615598358,4.483297771415593,-8.837560607957556,4.081438124939982,2.4389130828943593
33025,77.0,-1.8566194774119893,8.238368736966972,-1.168148401802089,3.0556154985405932,6.848858428639328,2.3051416082459184,0.21711470556720514,-6.84258805465463,-10.031871334663737,-7.84578482329918,-9.641937927366268,-11.415071487440184,-9.757418919609187,-6.178769983325488
33025,78.0,-0.5115957422126662,-6.420072557097132,-1.1367017345446868,-2.053793790708479,-4.786666615880481,-1.4517307258450423,-2.3934160860104647,5.402041221256578,6.882843098702768,4.525175719180176,4.5554450217480635,11.921462792568668,3.7476766700029316,1.1622864743673382
33025,79.0,2.9980120205168532,-0.4015438272832732,6.841971964706396,4.021469436527493,1.0177699421488313,-0.03453294439684029,3.301136255111796,4.02611637639211,2.5949229374672775,2.5891280251432747,1.0973024959758,6.201596255581844,5.398051976289114,6.591861875055791
33025,80.0,-1.8233297405499123,-1.5325991335644602,-10.8797880407167,-4.535594652738453,0.9190723127374021,-0.659640070500668,6.296755252766452,-7.057782178199229,-3.9322281449528838,-0.9933617521307028,3.889621329197201,-16.758051069958185,-0.2025256120848944,-13.411618887662886
33025,81.0,-2.5262655223625146,9.518907090174132,8.069568574374514,1.4594710841946963,-1.156349491729884,0.086645923670428,-21.696430045915267,0.2710726262780625,-3.0994625756452017,-5.8674789847710755,-11.790964148213806,7.778074414810508,-11.389090289962766,15.344084640805644
33025,82.0,3.3341826140135815,-9.244312040239922,-5.538773002519896,-4.555280839828157,-1.020328856262843,2.4703509846407634,20.54642983909,7.6615386815832025,6.596323004533506,6.623166899445987,12.429911069225188,3.6784399343127347,12.040124439893816,-3.7856047944495366
33025,83.0,1.8424031650462993,3.738889407406532,6.938116425671986,10.405726452823913,2.4033133718110946,-2.3488644379224297,-0.6563599448261641,-5.5991230080844545,-1.232081581493226,0.7408336482913036,-0.2669082512562646,-0.21458464675188438,0.6385525202566953,-4.060281569114299
33025,84.0,-5.270475850543491,-2.1024571732987205,-3.5756176990276245,-5.825918462537899,-2.648080281837629,-0.1763167546936124,-9.720046953367252,-0.33057692622712764,-2.6851179441493507,-6.472079952667411,-13.05678784663645,-4.231393567892297,-11.56421853005449,-3.2016498198888748
33025,85.0,1.994147000304043,1.1829930052915927,-3.957669783182638,-1.425989769630501,4.202468257471118,1.85146326216152,1.6988423690592285,-0.3342575928396023,-1.3828727264443579,1.6032525962468895,5.324794000785399,-0.16393982512184024,4.654553849709323,6.318021173974234
33025,86.0,0.9843021865161248,0.6167938053127848,5.640791801311725,0.5498302427543749,-1.9514965914363671,-1.4864134850630428,5.473023087900909,2.738714695624523,4.0471516418458116,3.3368765527946813,6.6375728797647895,1.598535706196774,3.0748763569224096,-1.4721857216351317
33025,87.0,-1.7986983876194564,0.10952285316405508,-1.370064402225239,0.942953258341209,-2.2029479599366404,0.2559119945948609,-4.265605541361893,-3.683828845937427,-1.5254387692341922,-1.2585022838366768,-4.009944682443205,3.344002223923681,0.6061534272501774,-1.7893878885919072
33025,177.0,1.8681421002951453,-1.9615200371488726,3.893469106557916,2.285562217857958,1.8393072831137829,-5.40730695724406,-9.032903264448834,-1.2826440304108075,11.375318446954111,10.694858553969496,-1.1040650225398423,8.313577971723362,1.0721417579151478,2.910188226263557
33025,178.0,0.8269043951512529,-2.7183436147059226,-0.0530558024612553,-2.4955311387611054,3.341697401414489,1.2348307689732998,-0.9750172934961618,-0.25593110908492633,-7.257519799231467,-4.899323451042779,1.370438483717475,-6.59233916953173,-0.5968606461832842,-3.552148237445927
33025,179.0,3.41141021230834,8.717275100660725,5.449744646215123,6.644477230216619,1.1592221311657305,-3.1175876368177136,-4.5172836731047035,-3.2012793508485977,-2.9784317942365064,1.9546480060877514,7.117167265177063,8.125241393476042,5.7726607441518425,8.6863317356649
33025,180.0,-6.03090047037632,-5.885375359909162,-7.925626515048759,-5.323383584333289,-2.911618227488301,5.345285553412179,9.346955578422897,6.648128154963143,15.09032482323531,6.339122728075086,-8.031365999890006,-2.812265143545801,-7.04473964992032,-7.8689032117420865
33025,181.0,5.26530434337586,1.488867764437856,5.144787462323638,2.972057473366924,2.1140888581411588,-3.4955415147931035,-5.424224774153096,-1.4390980314197463,-12.268771866889825,-7.66810113487438,3.2869566114442144,-1.3621683650397607,4.610889849024712,4.047409648864889
33025,182.0,-0.19761867730454696,-0.34384923577655613,-0.6736184678980948,-0.34402619368995957,-1.3974017651240729,-0.6193613772236546,-0.2122365391124461,-5.270173487205707,-2.018804412818362,1.424697366311996,1.865308615940684,-0.1497720188891556,-0.7071104695931787,1.140462896602223
33025,183.0,-3.8581710996688336,-2.5576334882579737,-1.7019323615820205,-3.7038916391626593,0.9076814343206152,3.699012758177858,1.6063196488826073,2.933232974939287,6.576589774653552,0.6625258276635364,-4.700166421123786,-0.2605122617022353,-2.857154804648836,-6.408018450788237
33025,184.0,2.532593393516972,5.841177691245122,1.9053782521272815,4.65007094126366,1.5870689768724944,-4.131289137458339,-3.865689556300147,-0.8198361907157974,-3.833910676662523,-0.07730689197487806,2.784642853792942,3.8898248597043334,1.1966565396794095,4.149793181227089
33025,185.0,-0.8424918861455559,-5.917866863278217,-1.7638983704438083,-3.2984300573745315,-4.38524618869053,2.666230341028914,7.912119266045,6.161167540437688,6.529256714804813,3.145993968888149,1.6797585318844384,-7.468965835355782,2.7132782854562087,2.11580036182103
33025,186.0,1.6042607381449834,2.6348131896235216,2.3792350270882814,2.3433850036600674,4.973099278043822,1.2806732179522449,-4.68801724534875,-5.1807829465818855,-5.341178419503898,-3.961509344420307,-1.166513698284593,10.692670242886471,-0.9548317787472484,0.608067097425657
33025,187.0,-1.757736267962791,4.8333491735170995,-1.6925701226301157,1.2977904121404507,-1.658437144271069,-6.7208729396539475,-5.8648016773100835,-5.657279922278946,-3.5708000658020467,-1.9405860876831618,-4.714502306453912,-10.72632776366028,-2.946822531833405,-7.874073677633515
33025,188.0,0.5497577540083327,-6.354127249791887,-0.36441196061969805,-2.7962571647417924,-2.016640443789097,6.91057498457841,9.095837631503379,7.786299729867778,5.801540373531111,4.894104247479159,6.455067510183355,6.685715929860127,2.4263755094262827,4.596341547352772
33025,189.0,0.860827549045613,-1.062784660196229,1.5539031933127596,0.048341868256073894,1.427223804125834,-1.7055840870072423,-1.53162704268399,3.5018146271923776,3.2861678977515467,-0.3590331556997306,-1.4269163677508487,-2.205540038289552,0.7968751911087892,5.653339856061837
33025,190.0,-0.7199855125931904,8.401450236201438,-0.6424143447459763,3.57057446877144,2.528949982766406,-1.2925951644721891,-5.091018447433811,-11.744556044891215,-9.867764243849333,-2.487081455441043,-1.7996523511408569,0.5094213214555587,-1.4815841441236728,-7.382401863191312
33025,191.0,-0.6203619704642591,-7.546364063588815,0.028540457781595308,-2.4995429684535857,-4.836658815694953,0.6729171691754168,2.683262892193518,6.06815789760639,3.4129565407344593,0.43468904327242797,0.10208340981162323,-1.630751512069292,0.1980704072247299,1.5083424469791318
33025,192.0,0.43699194284952014,-0.6924182733648365,-0.8586215051047219,-2.431035917470851,1.2776302136514985,-0.2850638588765442,1.7186032427593503,2.4995648380831064,5.090551252498209,1.502550632629145,0.7914005445104166,1.674076362739207,-1.3707991695553865,0.1893653204004373
33025,193.0,0.29517565249159716,5.486911102373092,1.3049288237007595,3.557146701351698,4.348519519052132,0.016281990463376417,-1.1832267027184749,-2.4270235804860683,-1.6909470868989551,0.9917050321214944,2.4436648594252013,2.762658990595483,3.850663931951317,2.8758042458514765
33025,194.0,0.8646061168674954,-2.0584596695511763,-2.3398126996885438,-0.7897324233621639,-4.452218800427609,0.049709439256044874,-1.0417363713204573,-1.3885662278790782,-6.561365712115556,-7.311252371008411,-8.682654655451646,-10.46806773455538,-5.944504009670407,-5.387924958965563
33025,195.0,-0.3894156081349962,-2.162273046901934,4.0941142412379,-0.7057430384266539,-0.6163441872417046,-0.04275652601074498,1.5637426810017878,0.530939010709961,4.3490237461107455,7.917753312400489,10.075479016637114,8.065335132515425,6.912477608740552,5.768239903509219
33025,196.0,-1.3817355224023053,3.2787020280262382,-2.4800966974579275,1.2008921579063987,3.4315571510973157,0.27464815199529014,-1.2041081309090238,6.425547261866448,9.16038499019221,3.6731598527959832,1.2102444259272005,10.541253032544578,0.25180046964194247,0.8729100798848926
33025,197.0,0.23292520898535685,-3.6357972973406127,-3.0794023565172637,-2.2683958537883804,-0.5320788028825163,0.6612409785821818,1.073168208374014,-8.179671088474006,-15.222290766920779,-13.06784791471798,-13.420362015281977,-19.088867586002895,-8.97547531989694,-9.798046474875893
33025,198.0,2.296411566402881,1.537465392203444,5.93049448722633,1.4175535056297832,-5.410529277361945,-0.9305424083317497,2.3358067868931123,3.6979255294467777,8.87861366934823,9.582436093880471,13.482204686918585,9.666784704704614,7.867676487879944,10.54678926984857
33025,199.0,-1.3816068118254812,3.198298439876833,-0.9994148708869162,1.2890477105415954,6.87259387335228,-0.8426564229769653,-6.782965901878484,1.7645027176418004,-0.5523705892234325,0.9704234045038191,-2.3896353642592807,-0.16579455059414983,0.5744283933740739,-0.12587207438573955
33025,200.0,-2.902551612571852,-4.731632887718721,-5.091959955944173,-2.3835165323236716,-0.7913994814152154,1.1924602935279722,1.7643570845960461,-9.605666612645265,-6.767513743311046,-6.701853550098782,-4.924243905673521,-1.5550397680406185,-5.186762825468644,-9.895414331477486
33025,201.0,3.7641279979399584,2.5557611166553507,3.459975568674224,0.8013438563782778,-3.094045235363158,0.7979954747459175,5.319502391899025,10.499875331608568,5.711614091065069,1.6211905025880355,-1.9537918776089853,-1.0373989540597641,-0.25259990481160344,5.663904476222811
33025,202.0,0.34860980164601685,0.635742114648771,4.102970876041876,1.8385495790425033,0.2116029848525791,-0.362214085380991,-0.7882009763682412,-0.04997171542826706,4.013207690777271,5.880639844046751,8.910770705298031,2.0171824329285073,6.2227173562717795,4.792316327977087
33025,203.0,-3.7901200091632745,-5.004143528180197,-8.521353819903155,-4.588753437946135,2.521274085242517,-1.300574464134904,-6.957599678578106,-8.913615354626423,-9.624498697213607,-5.268485742610849,-3.7824323522106162,-4.273815095185647,-3.9019034038823186,-5.240223858308706
33025,204.0,1.9041269671959924,7.257253630219754,4.39589771745543,5.516225476380626,1.9772872178180911,1.8945154101757602,3.685568522075023,3.8307832107186357,3.637668484226918,-1.69270836451118,-6.14379255649186,5.0303907877321485,-2.431198195090772,-3.1534783931361723
33025,205.0,2.7255284904983412,-3.8799114441881812,2.6263810712709095,-3.294302942198499,-6.453211503527445,-0.08856175515223086,7.120027877307635,9.104774564097031,6.3309441305792795,4.492734551235145,6.455694369917513,3.9804458674427856,4.028951047864979,7.5083562625965214
33025,206.0,-2.713347600250952,-0.2691560893656124,-1.9006414459544203,1.208834494128677,0.4170833686616078,-2.1462986617029216,-7.8884852471299105,-12.07322476724385,-6.752322753764574,0.11730452420723836,1.76407394806116,-7.629997314659597,-0.8921628628337963,-3.565850287004448
33025,207.0,-2.4671971741244825,-1.1117098192127948,-4.105135011924524,-1.6979420214337004,7.817814863528053,1.1992102846544874,-3.0643850320396098,3.0876120557234863,0.8053391318925947,-2.0276176539071464,-4.092052534768623,-5.001596653926082,0.41128987367793357,-1.5117993201027176
33025,208.0,3.509603333524037,4.447495945500666,5.711602202642666,3.272238218496419,-4.86889248965192,0.6325604456627332,6.681252058213335,1.6380985200046503,-1.2211350561538126,-3.620221021304957,-1.861561933802637,11.48672781574506,-3.4022899946402596,0.7599158258673206
33025,209.0,-0.03350777026223639,-4.627970617369986,-2.761797212754143,-2.911939513474845,-1.975278889101066,-0.5083312035281011,1.705006399674037,0.14895902260335703,4.1975730048655535,4.813393032686136,0.6150647814669696,-4.28783349823312,1.6628321489585858,-0.20844237172859437
33025,210.0,1.0237252417941285,1.1464078032128953,2.128025013615119,0.4428164642834034,0.9355316847271062,-0.16023189219946232,-4.875194766368036,2.246010588862841,1.2771747581817117,2.1289439765070775,7.8272440750971555,2.1693617048034355,5.379448849440678,6.975264305246995
33025,211.0,-4.238385700612728,0.9959936801863485,-3.1373910596136945,-1.1521889624699178,2.607768986370779,0.334921006234282,-0.5095720270515152,-5.0405466367386325,-5.919808368076513,-4.405836175922005,-7.595002395646727,-6.303564333765635,-7.27369366362257,-9.52773676789893
33025,212.0,1.714026580799537,-0.6405612521163455,-0.30599426398690355,2.4430201710031305,-2.330179934547129,-2.3447615973837266,0.8714575940607894,0.8907661552512458,0.5875525213549224,-1.001893746298542,-1.8600532100056917,2.6336037379379356,1.075447850316504,-1.4519274159065318
33025,213.0,4.211509497482147,3.1943319862574207,4.469097093475121,2.0006006864099533,3.1232452216453694,4.885135596015836,3.387190216077709,5.806715661085651,6.511101867877468,3.7363010723196908,5.011745080345236,2.6272819602811097,3.8568642626559324,8.342938692841365
33025,214.0,-3.6693003997873,-5.865243834699477,-1.6323559008060293,-6.084927343507722,-4.9388894903877265,-3.2308074115478966,-1.6983014714741316,-6.213469182841038,-6.273559834864539,-0.4084798488588852,5.0799147643299065,3.4172244549257016,-0.10769032942347678,0.8650693275707013
33025,215.0,-1.5554795149688623,2.715689221286773,-4.904859841905125,1.5596640352937179,-0.861903198900805,-1.6876542685163294,-2.143878657928852,1.531664680316002,1.0569203631472348,-2.553613413315457,-10.432407438204784,-7.874480777896238,-4.655811865307339,-8.677721070676029
33025,216.0,0.36863504306359474,1.5014655178945233,4.26764173910021,5.085248355133398,4.030888994659634,1.5167469894996195,-0.6856305261895876,-3.505820607821125,-3.100553383041756,-1.5480779295151308,0.31683911437952617,-3.0736372185519265,-0.44020160818833887,0.5779161051262349
33025,217.0,3.0735342354561688,0.38637691505244476,1.1229841147284425,-3.4752798867497,1.2918473156674004,1.192179538944366,4.374081133537725,9.026263732476203,7.478119515246128,5.438738084503257,6.119507803142088,9.542573906034974,5.398363485213157,5.570195333741559
33025,218.0,-1.2492780714574465,-3.399079124372811,-2.5483005790644953,-1.845052215797967,-4.030481164221346,-0.4162795260447538,-1.8864601208589242,-7.270167675040302,-4.418894114810811,-1.215604184028642,2.271769618184642,-0.38220277684204973,0.49939277741110644,1.4620238894736204
33025,219.0,-0.4332269719462616,2.913389997778946,2.307887700327015,2.128088935658244,2.201036539776208,-1.2972114529761107,-3.487892211801924,1.8741884365051824,1.4382826318644142,-1.7087278548199905,-4.463975922651173,-1.3075608157955259,-4.210592037404215,-3.2628413373448666
33025,220.0,-1.2042044597510078,-0.6218370289653805,-1.6515283751632772,1.3267290280971231,-1.059471077071283,1.2208736274798149,5.372578943033542,-0.32470723278517255,-3.8297728872415746,-1.884126224129453,-4.631823637845624,-8.284234539596145,-0.7547982362765566,-4.697111272092684
33025,221.0,2.8843759343265525,-0.39109921927740743,0.8210987476311296,-1.9760912468257565,3.2677307381342295,1.761533738437656,-0.7525153538159799,6.3013689728118045,10.260952044639275,6.472774276392919,7.967355379690261,9.380137611405438,4.715435735628976,9.807483251583513
33025,222.0,-1.3543597829325726,0.9762080883887343,-0.15684903987811794,0.5126488944981453,-3.5308559907703483,-2.7708045859922983,-3.585597842820963,-9.830816140431857,-11.047599667926953,-5.869684521813582,-2.36743955131681,-0.11298496519400558,-2.605509495795232,-4.848188144547631
33025,223.0,-1.2029655398703554,-0.4388359472362673,-0.4736994091576747,-0.2558042690821516,1.8033766145796264,0.5187676939575105,1.1951443841306286,3.391105493898756,2.4726632238844815,1.9668979205544161,-0.717337242453155,-2.3720501359782453,0.7144778750403624,-2.499699589365221
33025,224.0,3.4479848236910087,-0.2867674856393734,2.0123459023455155,2.386480934295733,-1.276649154750448,0.5250867262123613,3.420687820955063,3.408908721165581,2.930272566306229,-0.43549418699012676,-4.769391558054327,-2.6055499091387233,-4.073274792205709,2.2200569613407346
33025,225.0,-4.036511137738881,-1.323049686781875,-1.601925099830094,-3.2391502476420726,2.387270325970583,1.9644027706279097,0.49203087433365766,0.8615672252954703,2.6798723192545246,1.2054781037018856,5.717928113466215,3.3999009630392116,4.494713474826252,2.2836587165854425
33025,226.0,1.712305755286856,3.269975200907293,-1.599926809106563,1.0949756150041452,-2.2162703423351005,-3.805928052723001,-6.350382591576281,-7.73553382655389,-5.832741486872006,0.18316621210899342,2.8942925638530888,1.520981665207291,2.269127705074478,-1.0669435889541994
33025,227.0,-0.9029572074262333,-4.153850645015083,1.5919670989060783,-0.07946159819864462,2.2705055923140556,0.724585339752899,-0.39762389995692615,1.344218156280217,-1.7438371942223228,-0.529772166098823,-3.247785569169448,-3.9502859604810823,-3.5560517035662613,-3.3445843585822104
33025,228.0,3.532872256700795,3.3467718392915202,0.6178017965309728,-0.2032822083283321,-4.270140524972025,2.4269574222928405,11.255820192630356,9.61618327693563,7.427777609595058,-2.3995869431387824,-2.067042733241344,-0.059468142212491415,-1.5214405905222854,4.641368917387176
33025,229.0,-6.18035001423576,-3.0121349347678326,-3.826951252131906,-0.6761574487139086,3.540069363246161,-1.0221980994065198,-9.862891016421631,-9.86011065199628,-5.253095699385689,0.7587703132867887,-2.6100220782239916,-0.873498383361401,0.03742779223786741,-5.050471058993992
33025,230.0,3.139871559711608,1.6886766358108112,3.578792560758682,1.862497584068791,-0.20232975028782008,-1.5854552245961209,-0.1104025579202883,0.34140873472424005,-0.0583705661299696,1.58045196880623,5.354428651772306,5.282920086840576,2.182289444206525,2.372985917080449
33025,231.0,2.127211227659398,0.8336310204594746,1.8519198825821341,-0.8684910355780069,0.1168003856170472,2.690940318986229,5.381402313067198,7.740808312763267,6.141866550657202,3.1150209265093878,4.708253030762183,1.5757796380424267,4.775953639248371,2.7791212055952315
33025,232.0,-2.1424655251732894,-2.154369080368138,-6.124204534445802,-2.102639861167596,-1.0536452715259834,-1.797086475285738,-3.216807783726466,-8.962929691091421,-12.430735216480247,-9.732296869175155,-14.07359289261499,-8.150171837006972,-12.26676920482906,-6.715640837754851
33025,233.0,-0.4342284106238594,1.395494592597256,4.5608717542184145,3.08420028529353,0.472206183835862,-0.3575999049666372,-2.626543580209514,2.038104715854704,9.649927130169267,7.999006347475625,8.579259964459453,-2.0174492990669,8.031213008638357,4.694799203190993
33025,234.0,-0.2869826684285073,-0.6161867149983351,-0.22140757758530683,-0.5696233197701233,1.534534446890433,3.268640644138525,5.0594464834772666,6.402005652833637,2.189694919962381,0.3910287576913163,2.4857301919280097,7.005193816502512,1.4218919753465542,1.1721254741452931
33025,235.0,2.0693880747358016,-0.09423453186078135,-0.11251786233560424,-1.300366013476978,-3.283792030506948,-3.8390673302705274,0.12949227856737977,-4.766738621093602,-7.5632745054676,-4.663685483075422,-4.216064309851074,3.286920401342158,-4.170374197589307,-1.4641746715404658
33025,236.0,-0.10335235139017485,2.1316848141988842,-0.8010613097295369,2.165446648758664,0.24330330859237392,-0.24973990987444594,-4.257627811756748,-0.28935741016819705,5.015251162205892,4.41248195996274,2.032953845872271,-4.896409251386739,3.2171841517588113,2.5437499449856062
33025,237.0,-2.732372010463333,-3.5609832330849294,-3.135789544758783,-3.7577860098345006,2.5489029432470076,2.5127030205621033,1.56828931468117,0.7218035542555512,-2.0460030084354237,-2.6200143965638,-2.563189324190258,-5.174015599798864,-3.2265960723832663,-8.446707922677103
33025,238.0,1.280679152064824,0.9995607606482082,3.580591893530574,2.1652563455211933,-2.7987217727067275,-1.1440970492639373,0.7628098815784554,-1.6256851585956902,-2.398911167038154,-2.6129478484167485,-1.532176737061402,9.153413858448385,-0.41129939267396054,3.917631819633705
33025,239.0,1.2297108970518487,0.8627657602328966,0.8580792976395593,-0.48220515600835157,0.9313095966978153,0.1041935207719682,1.4475413393727727,5.4081178077892815,6.93190998012388,7.515251246053197,8.630638714592177,-6.320572637707659,7.330320080400156,8.095096801609998
33025,240.0,0.5353329895839387,1.4575780312394855,-0.5772353275909303,2.5178136750193616,3.802526931114709,-0.48678232519845466,-4.321288433948478,-7.388175370928458,-10.011196037880644,-7.657356290803875,-8.766774839414033,5.351649000980476,-10.767588931789742,-7.625338375002443
33025,241.0,-1.2515559646844459,-0.6258211329324297,0.17023474242945014,1.2101452595182778,-3.863116421910906,1.6053076021670272,3.7427408790184593,2.553387336926889,6.713150994351775,1.8967046335932274,-1.2007250199810606,-3.0885020798924145,5.310501791142908,-2.9528878774072638
33025,242.0,-4.925585117637894,-5.711811449004728,-6.482212184176245,-13.658992314437782,-1.3023738057811087,-2.3952756813508174,-2.8114120825013487,6.038857832924158,5.668323982642246,8.400354308127902,14.137658981760723,-4.520758558884733,6.214728204952092,9.211632346213307
33025,243.0,9.923415194626799,8.51077175016949,9.957216019803514,15.971886901722844,3.3471651311428268,2.087421057991971,6.003628060941821,-4.895058388426907,-8.995307122882235,-8.179243786392526,-9.209856291209917,13.184648256919655,-4.912843258369417,-1.945680646688583
33025,244.0,-2.9024083108545327,0.04528675638372093,1.1018856503726155,2.854627811856556,-0.871236720007829,-1.2656132818177888,-8.389762486715682,-3.299963021647809,-0.34529261073182127,-2.406589867354988,-6.382313263433765,-7.520738676539995,-3.2345668212846057,-6.52213659421707
33025,245.0,-4.50935896087924,-6.67667347152463,-8.936882413175823,-14.345448362397295,-0.14592019159876557,1.0187382072616664,7.250799562946664,1.741896673490249,3.1589429923733015,5.219762562672731,6.293461063917835,-6.200386924408075,1.4454196364567231,0.7731531733436334
33025,246.0,3.610433670758461,3.991622096066269,3.5703565701921853,6.168871854223145,-1.2750294178545403,-1.2861969497610026,-3.085339295067822,6.768715240843171,2.6006421456212436,0.0038004524892905067,4.088555960677073,8.67257750692583,3.008290280441944,8.279740590470222
33025,247.0,-2.061678997427048,-0.5188793401555856,0.3470131902700082,1.4369266236932958,1.068817889857275,-1.080294429348374,-4.805478042271616,-9.462925802106064,-5.266103997930511,-2.1599814401836817,-5.402324981832571,-1.8925232581550517,-2.8490809188099746,-6.622299379648208
33025,248.0,0.7895890009933773,-1.4786038940687796,-0.18283197353190417,-3.2213380226178927,0.6794025011278215,2.9897724910756516,6.103177319713989,2.6804253599296963,-0.5640787121298594,-1.023646884728933,-0.7227188606580839,-3.478391145390372,0.48545646739205495,-1.9658943192389167
33025,249.0,0.8348991953017055,1.6373365413802858,0.590829641348634,1.0088318598687707,-4.304674416840392,-1.9691425181725926,-0.3476098245264261,4.304596884278364,5.70118816649693,1.6150332955173674,-0.44265156122617455,-0.3670330131266617,-0.519855319813594,3.037299756938882
33025,250.0,-2.0716845474034464,0.9488993485486965,0.6831144097328021,4.710034959330642,5.357759699352993,1.924490354755207,-0.5519907112491467,-2.8056086350371565,-1.9528830346667512,1.8816294720465692,5.551739142279985,7.453367501811673,0.5014033525261894,2.98823533933993
33025,251.0,3.285554600838804,-0.45238577091421917,-1.2191692673223713,-4.047578338194306,-0.7818491762926243,-1.0771697455828395,-1.0677906141588664,1.3819544564332347,-1.596199992825575,-2.2057763124392693,-2.0045645440384696,-2.9690873365079966,2.136395089844285,-1.0421058297370216
33025,252.0,-3.8120636529098704,-3.6892500637853196,-0.0182519563091752,-2.13172144183687,-2.59410856869145,-0.9481075168940905,-0.10783673408334948,-2.2544449762415084,3.2497166085937153,3.7971889838548947,2.4828593660030442,-2.771896578664567,1.5507794479180141,-3.33746575424847
33025,253.0,1.4906260277732635,2.332196041397207,-1.832249623156141,0.8499992364876618,1.5204036129334284,3.9983800582730886,4.9946730305557985,1.5262147235940304,-2.2931573556453415,-5.12257920834459,-7.079292060903324,0.06729096486721886,-6.279943822918192,0.32971233825003665
33025,254.0,0.2485695389828564,1.9026459536032228,0.9128397960196963,3.5745708911359344,-1.6582729298263068,-5.374622780603289,-7.541655277722263,-4.729416034974907,-6.266380866104729,-4.153924870485898,-6.835280204147722,-4.822696661689623,-2.3260275222729554,-2.3424299869300462
33025,255.0,1.1285387940545135,0.07284623378466293,4.580310298322274,-0.895658762634735,1.8201092864188482,-0.16497230768235838,2.2491396712538396,6.201041017014038,9.044800080636627,8.372250297861019,12.399451912095515,10.064236066616104,6.028596857788489,7.054476730725792
33025,256.0,-2.2312220972903845,-4.2242823352472385,-7.0564097221687305,-3.516376767047934,0.18550872847028899,5.356206093615377,2.420441326182985,-3.6593471071832155,-4.028110378501584,-1.3345686229718545,3.2112028804788793,-3.7827290244052243,2.5534873216433134,-3.1044720314079655
33025,257.0,2.7663233444223394,3.796908111901402,5.461092338836686,2.423629797004601,0.3327803085207286,-3.156796449851619,-0.8780217500443612,7.118861961522548,7.565663245821657,3.7124410999454227,-1.2272742566618433,3.773834110202994,0.23623311537178893,2.078152432310606
33025,258.0,-2.0045462496873547,-1.7520923128342325,-2.7725722543025277,0.197766781566159,-2.3931406920659803,-2.2510198669431496,-2.644479213855849,-9.989590077468073,-12.498848817062427,-10.49896809246005,-12.772958406845685,-5.646903362033797,-9.895310002901482,-6.700242086812516
33025,259.0,0.47626091589412667,1.5083190475355437,-0.4311355030588757,0.007046588781157936,4.129736400341738,4.994951520618585,5.129223248041807,5.239446575469515,7.0305194084562,6.592666306383457,8.75665193174386,-5.094918124216768,6.63386925581036,3.9737083673664344
33025,260.0,0.1727997215229493,-1.2143049772366794,3.2574494663211233,-1.4276651751048242,-3.2317501156656903,-4.311497452307261,-6.294127829668927,-1.552869126369636,-0.9487829725128591,0.23571932028123044,3.747444225621056,11.422328186126695,3.849315518961678,3.434260960315079
33025,261.0,-1.2626124035398476,0.486544639053335,-2.66030084528623,2.2016643540537295,0.6694821298154565,1.924308312993677,2.72014167308879,2.5946964461458144,2.0947575027687932,0.35341109700477347,-3.165657520815948,-5.167975745520849,-5.440455267937651,-5.026564524452745
33025,262.0,1.9605438285509074,1.1129331316203093,0.6249422112755418,-0.23676275148612902,1.8021464538886285,1.4278905044994268,4.546143409987728,-1.4246097484777174,-2.3780488635822934,-2.488736626181474,-0.7615406934834503,0.9917596430433626,2.2893269261309435,1.3532132517620923
33025,263.0,-1.1776015640507467,-2.590470155678652,-0.007260530101810048,-2.2653400657452885,-3.406007949179017,-2.566186344490589,-5.691384874856126,-4.3069789711287605,-4.553258833595674,-2.368077281861133,-3.7258632766862156,-4.939884827515719,-6.564827027562266,-0.6825257427308351
33025,264.0,0.7994780272763222,5.93016540919398,1.2559462247679438,4.2321362745287985,-0.05881882492776924,0.18165922822348554,-0.7228368087918966,6.509349701822809,8.985092168480483,6.8133274078362644,5.689395137638144,6.881674404625305,9.53489153377302,2.8532229213133795
33025,353.0,-2.7147028924003287,2.127627172956693,0.5155744611058957,3.2017323193784577,-1.8752525513532454,-3.815866171686743,-2.797961885124149,1.015231401407739,1.4308964996013387,2.0972938462928745,1.7806218322407759,0.38234258496981255,4.670362224606929,-1.8503579819609293
33025,354.0,-0.4148076145578088,-3.1991588572324474,-0.4319941012700568,-2.409999475088938,2.947537569957621,2.315489711793152,1.5021473782643469,1.4971190835248684,1.222511135202911,1.1043244474015061,0.8071987359132393,0.035672513490840885,-0.06360788125380168,-0.35239461402751004
33025,355.0,3.4678052564722677,1.7353828221547793,2.7193726524434823,2.256538481893159,-1.2990304243263289,2.5103715556841415,2.031916681734721,0.5748425357451055,0.8210190451959072,-0.591759359678548,2.839557175278472,-10.42751318498312,1.4684145098139183,3.927005482573584
33025,356.0,-1.983340852833983,0.1712436785823428,-1.5914727423674648,-1.3991280069874144,-0.6537222927887107,-2.4457334156358037,-0.7915416898354906,-0.9262441374604791,-0.7326988781000345,0.19611512456282298,-3.1124255329633606,21.37813770071376,-1.3009678554007067,-1.4538448685697851
33025,357.0,-1.6185022431760423,-1.470496956614209,-3.8310330640683397,-1.3850161191366404,-0.9233746218081507,-1.5006488289522828,-2.245942803946189,-5.034247583180289,-4.924658703206347,-4.084329514959336,-5.365688764304608,-11.56824498662715,-4.602305990222433,-3.111987732104865
33025,358.0,1.6024905730850456,0.4476885133642199,4.123964231793533,1.8302145423767406,1.4279009444508297,1.830181361505204,0.01785974929827816,6.469838986086447,6.756558979778731,6.053392323670668,8.97728758513598,-2.173267633875124,6.461344580164507,2.715475099164596
33025,359.0,1.4923393376201552,1.6321056669461882,1.8599868978945224,1.0636783298457573,1.9131574711398223,0.5792220549480298,1.480857465514255,-3.4120769488129064,-4.471682685090197,-3.5774912333370885,-1.4966419865469653,1.2069066268525788,-0.08388255856229065,0.04571254220668308
33025,360.0,-4.300225157554422,-2.750598328946637,-6.399493699040818,-3.036580807776165,-4.471554686942476,-0.8344674668422414,2.225090982840957,0.4440966463756908,-0.1384089277262781,-2.218132218505648,-8.1428992739087,-2.8550309380522947,-7.859745518104976,-4.225158466087294
33025,361.0,4.330191104076025,1.5370586646592344,5.987531436508608,2.5783095809444916,0.7585775693619645,-1.9733942946102232,-4.483614102656876,-0.561443762522682,5.247318750170457,5.838886578227676,9.331860094367993,10.358610275344812,7.4461097873352315,5.86665527589798
33025,362.0,-1.5075361464062382,0.19947738643339719,-3.7419405781628896,-1.1110241412071176,4.37770208693501,2.9414775699654854,3.5363304420830204,3.960302759149588,-5.1672872342507326,-4.37554789883583,-5.5042189236935535,-8.705262344316093,-3.020428515608806,-3.3055901767854294
33025,363.0,0.0056324689912621295,0.48172496632123085,1.4942874240935637,-0.7408652395114501,-6.767792112334817,-2.027751585689707,-2.613217249586281,-2.5177985421236926,0.5916088989612049,2.8731067722449133,4.7958431867487015,0.5137864140760158,3.2248724875164925,1.7075341808643643
33025,364.0,-0.5789705754915886,-1.1813951210795217,0.354468445411932,0.8579780219787274,3.915762342471787,1.1071014231702812,2.121844068863325,-2.1256768589794603,1.2335075426770956,-2.290694537221146,-3.9340179247282663,2.830575236773541,-3.217240964209683,-1.6124920462944026
33025,365.0,0.9373767589104176,1.031599899157058,0.3729406251122249,1.8696910530818442,1.9288521255987305,-0.35041363817163074,-0.9609198745221725,4.336059660680004,1.950234129825457,2.053525066102811,2.4317357358756873,0.020477576058056002,-0.5939962722019523,0.5660082785616254
33025,366.0,-0.12385959599101426,-0.831504832493561,-2.137926514390884,-3.075011872127998,-2.384957549096427,1.5840903693910526,1.747444459052602,-1.2938171439953905,-2.124515853496291,-0.5375246372523357,-0.42738420052494064,-0.749846913165797,3.4948517551898206,1.8925305965971582
33025,367.0,-1.0176219920402687,0.3189153494754642,1.2559452997128986,1.3647726155756885,1.0009879495642906,-2.094546203399819,-3.6077529858954343,-1.5549941369263465,-0.6412773350813339,-0.6172941701275825,-0.5317257209933821,-2.410616268259588,-0.9015760255599297,-2.1402422570795814
33025,368.0,0.07601252983578277,-1.2450514043957206,-0.258840087305213,-0.5677973186462495,-0.08479677774190719,0.762075580979463,1.943875522313359,-1.8759534070085415,-1.5637170665382953,-1.726681474913125,-3.3411961582064365,0.37968498424312,-4.418250787313106,-2.262719136967416
33025,369.0,0.5153427317133108,2.2855912387585064,1.2230196428306037,0.6900681631498387,-0.32160021906550895,0.1714490017544179,1.6663133805990498,4.76965231002249,5.101786395067819,4.350094020488726,6.344079610760453,4.4117911116497694,5.74460033847339,4.962165998314777
33025,370.0,0.47961514063947774,-0.7231117627488608,-0.09397359027057917,-0.522319591745088,0.1802714605731559,-0.13365563677812276,-1.8441722677393457,-1.5045731589802855,-1.656750227861135,-2.255938727925102,-3.0243896179567287,-5.058481361666733,-1.9413428276920364,-2.2092412859821877
33025,371.0,-1.5524360825747898,-1.791062704158989,-1.977407639702708,-0.3583840749415188,-1.2098948577917454,-1.291907389155039,-2.6358109378322183,-3.8325244014193345,-4.770601127867586,-1.7955503120816019,-2.1753454442059414,2.4082803242085085,-1.6457971975069405,-1.4256527002740604
33025,372.0,1.9582910749276543,1.2805414892330198,0.8357710158877865,1.225376687381658,2.14910306436796,2.2482083706560267,4.194740168532601,1.8021262253872408,2.728701850932893,1.0994957103834935,1.0703200019872021,-0.7244737627918489,-0.661684242963311,-0.2839141179356304
33025,373.0,-0.8174498985895653,0.9718056080809845,1.296576721819843,0.1114759876240754,-0.7284983883510847,-1.5662406297825875,-0.25813103249813096,4.6706125664241185,6.449256168522332,4.02729622722039,5.120122748221011,3.9615721618156066,4.800298912848177,3.634642910086516
33025,374.0,0.7597209178746489,2.0215906358380096,0.9523969507173042,0.4442578181628569,-0.8536135913601086,0.5136989707224409,-0.9446504554591542,-3.2658333755481017,-8.312827935863858,-4.668254043344387,-3.514697931556487,-2.3165295846866982,-0.3874833293262654,0.284051285747001
33025,375.0,-3.163311170165901,-6.82706181056999,-4.838667108306648,-3.115611999951181,0.4519021833776158,0.38822802495443653,-0.6859118365756096,-2.611582294104487,0.2849925309642316,-0.09439530864857915,-4.762432084023832,-5.867788014720045,-4.416817606432929,-6.451474462250179
33025,376.0,3.3751628835566976,5.6118374582429915,3.6167348264602133,3.791322206660947,1.1101025401846023,0.6864367381218877,2.337765027294161,5.250436436200548,6.097238090726776,2.0402000102030833,6.77941444678093,6.7879453936827865,1.2433533194152702,4.279456529236338
33025,377.0,-3.2703059641426364,-3.776391185711528,-2.1195965697062142,-4.021096269231844,-5.4153786694389545,-4.648534361023582,-5.507808098080375,-6.994892703814692,-7.362493475027719,-2.2317032121702916,-4.8827241306769125,-7.521909131130059,-1.8205631693110647,-2.9043185967577543
33025,378.0,5.961057337653763,5.617249770667232,4.958548273338817,5.644567797654354,8.091012466318684,7.3836358213317475,5.9375373625871255,5.40880920545521,3.7602845463041206,3.1384046227965925,5.962652806307812,12.415826592271813,8.090800866338014,10.12354992832887
33025,379.0,-5.014805061236281,-4.170891895715673,-4.821520343044018,-4.858804482274987,-5.0805087131757,-5.475632284918028,-2.064583496185918,0.007623192884274488,0.9979643556499838,-2.994017968249125,-5.522284638485424,-9.903663348092632,-8.140404903364587,-11.821341099316651
33025,380.0,1.6697036371606693,1.8188817886207787,3.7398395780837426,3.077805579003993,0.834020246729434,0.6508784045104505,-1.0010922481778728,-4.466366445737982,-2.7153472211770513,1.6556485231824105,3.822657463912936,2.746853430421641,3.4354885566832785,5.518656733009589
33025,381.0,-1.4162216529216813,-2.3700186473075853,-4.1054044939549605,-3.3981378838235514,-0.7467053902729184,2.7030116010720633,3.6803547763179907,6.738024311086573,4.524357195818613,1.5029188660339656,-2.9259680537636754,-2.7468976065772246,-1.5980884177768964,-2.037819192711087
33025,382.0,3.1874542958075622,2.398755393698263,3.291137364517251,3.746890062969424,1.683766173114428,-1.7229279855542003,-4.451060964333102,-3.9097524361023233,-3.2130692886007814,-1.1365490440176877,4.421998639063133,9.613407667757581,3.778665239881061,5.1719881317589405
33025,383.0,-3.3036804587088078,-3.0302228896310837,-1.9076365359882637,-4.241654361999718,1.1234144166292985,0.7176056797466615,2.513196744099048,1.8248446079106166,2.7003331627674925,-0.37178939983449766,-4.2441092379247785,-8.98264102587115,-3.3092140271919277,-5.156819983030019
33025,384.0,0.8064924238495905,2.9282841284050924,1.268485368126445,3.2607821528080336,-2.8261731169633535,-1.0355628248098476,-0.31379001450147115,-2.7948725147771647,-5.515621691304272,-3.2823214057689682,-1.7436004038049973,2.395508039586847,-2.085139690709248,-0.03293555213895871
33025,385.0,2.3998223939276357,1.0100575468958013,1.3655576094575643,1.5087307445059146,3.0501852971593415,0.6199528887482089,-0.2921634032463061,2.648035126599588,4.9309300755653,5.596855304617261,6.727044160292763,1.7609528728422426,5.4757886573488115,5.149529116691674
33025,386.0,-2.8833510497135215,-4.119636940554294,-4.377016266708992,-4.788244513538373,-1.7851675457006415,1.1243596094461417,0.16574870063242741,-1.4472621796234328,-1.5210223631842403,-3.9673521108390517,-7.12682106078919,-8.872279183346105,-5.67453158384323,-6.415762180872534
33025,387.0,1.9745279579436428,3.7817997826704755,3.2406081423090605,3.6542932939879016,-1.3598067799754965,-2.3485766169198854,-1.0518000851373692,-0.027775292461452494,-1.4945911924679045,1.15020458324814,4.61530121524131,16.37660094189358,4.196957014347181,4.4837314415544895
33025,388.0,-1.7886646278607756,-2.681523617134637,-0.9351155066384464,-2.124301031668569,1.6768546646581406,2.0902756123840227,1.396360681887984,1.0972877436733768,3.3592576534673846,0.6341908558664855,-1.8129885954834677,-8.089088404387986,-1.5820389510418096,-5.651880067885642
33025,389.0,0.6932121918353644,0.7679213100505748,-0.47890589548042684,0.5467043187620213,-1.9172270487553469,-2.611671923161296,-1.592067774729621,-1.4324630819302904,-3.280227493217783,-0.6765162273847594,0.2932040113658232,-13.072695285964915,-0.6129474599575104,5.383119744163086
33025,390.0,-0.27283900376609793,1.1292719296286293,0.6591027402789749,1.0734317146623198,2.8878793750565315,2.8200515835445117,0.502808884226905,-0.6386897058939596,0.618185650919127,-0.03291336832781866,0.11172781025383571,16.473957992296086,0.7583459968409407,-2.8314634476642624
33025,391.0,1.8768560793329883,1.1245677903493814,1.4045589034202273,0.4288442098494265,-0.5748830525418711,-0.20707200013082883,2.8446590544653887,4.453071990498959,6.047609438568362,5.091010046124648,4.4126500093377565,3.854016219853115,4.4779446791338415,3.634068180941661
33025,392.0,-3.4969880518033847,-4.904082068594597,-3.845531038431261,-3.0424451933099803,-3.4739189704285813,-3.367543028664862,-6.111714627956829,-7.425239974461441,-10.628743939492054,-9.99679211866929,-10.545595789901853,-14.173119108284759,-9.220764202963874,-5.8054079050236425
33025,393.0,3.102855643576838,4.68188060390316,2.7794027325796122,2.6102144956855327,3.558552117073422,3.9524462049575,6.262979198982379,5.3717524663244305,5.220584535191264,6.181306493866369,7.642946186836856,2.4465497047779863,5.730107294006505,4.5784886468047965
33025,394.0,-1.55674564110382,-1.7303709161947332,-0.6556888544099095,-0.3427153072301401,0.0933137820234542,-2.4144483200506777,-3.2892180422395363,-0.5002060552219127,1.7813184271768918,0.5523873376171018,-1.2312306449506636,4.852275897308864,-1.6812846828445984,-1.9279016917543395
33025,395.0,-0.12361108010302857,-1.6947320892581992,-1.2727055917039927,-0.9273557988511598,-1.1725380560981549,1.0372526464325027,0.946934040641068,-1.078595324326109,-2.9773996552591413,-1.9649171967107115,-0.5619551025752507,-0.8121548656995223,0.9853376527103634,-0.12671248881819253
33025,396.0,2.6225739729912085,3.2470275390505243,3.9406539820760003,0.8837032765080579,-0.22971824302399213,1.5152015204803426,1.6654604625132983,2.1092752964136174,1.5448067939823957,-0.6047643446436837,1.1542910598937617,4.368035860191576,1.6622485177297825,3.522129531377484
33025,397.0,-4.693792477487843,-3.9903884187755523,-7.04739650611862,-2.943529377166275,0.8188815601826889,-2.992811940226897,-4.132867952086826,-5.0307115898951835,-1.981455368279228,-0.1703049645711303,-6.485145230058713,-15.100241724647066,-7.539130122995058,-8.049310705951164
33025,398.0,4.0643064631804435,4.6448389097596525,9.219792493037112,5.707115562026296,-0.4626825521886424,1.2717175112972008,3.3145160478105318,6.522789767219418,6.558900538237122,7.115039268711829,16.816134575730153,18.156204040976498,12.206876385234064,9.53508306844434
33025,399.0,-0.6916929683123669,-1.0759916996647085,-5.478195234103236,-3.6019105952063057,0.8688521813056376,0.9393069821712992,-1.7949663024391072,-3.7114759179242505,-6.846096076109685,-8.838857864657701,-13.637564896227637,-8.021552998049263,-7.120796860285495,-3.429984091536781
33025,400.0,-1.088096808380886,0.978756706001473,1.3281574761676787,3.267474005597279,-0.741640072170501,-1.5718652551673848,-0.059269037919357004,-0.9239587701313177,-2.35584259465908,-1.382477656960841,-8.929711279110428,-4.467903715481185,-6.534140785659822,-2.445403303413478
33025,401.0,-1.712327640682421,-8.857513400345631,-2.4236265363745773,-7.759241017046826,-1.7029926422134984,-0.3899299639171119,2.3977240665465587,4.046399479669571,12.008488552907878,12.00437763197964,22.001999895993496,2.7429458041364505,13.95644629857458,-1.3014104431830127
33025,402.0,4.675532670698921,11.521189247643697,4.4767879773294865,8.848122102790164,2.4681337069442186,1.2645221561188862,-3.663727991174646,-2.044488281017216,-7.549483819440841,-7.81175976983857,-8.250723994487949,9.224613467649878,-4.967561419034364,9.35960132572863
33025,403.0,-2.698583399501775,-3.601029910791471,-5.389633442236001,-5.752649369752426,-2.1714458688276927,-0.36165604146035335,1.6109876372961622,-6.997270172497462,-9.824946906882804,-8.194528817630609,-13.227819912021388,-12.015454984422842,-10.012173948008616,-10.213065687647052
33025,404.0,-0.057218124294085015,-2.084007597203094,5.053627802106821,2.823577855959101,2.5778479585801897,0.27936789320505184,1.4844200182224156,13.09577873337426,19.024771076617824,16.217040475852176,16.830190963873513,4.958160832451153,12.933767257316216,6.0127880733762
33025,405.0,0.16397063301934622,1.567503905661578,-1.5269001655330854,0.5144658461657663,-1.7542440803351411,-0.22112319895730437,-1.66816538030357,-7.189192183321065,-9.577212538123387,-8.493367727157391,-4.598231267498026,-0.13559497470629722,-5.526298425382279,-0.599974431323993
33025,406.0,-0.9100032957487869,-1.428446284656598,-2.3054214879972825,-3.28298794365908,1.2041071298562933,1.226050926509199,1.3829131995739452,-1.3934575631354953,-3.3594667949448507,-2.9275475733240732,-5.5652987049155485,-0.4672118074851035,-1.0725718674824805,-6.107774855900438
33025,407.0,-0.6650884756746329,-0.3721925259737979,0.5521228297030518,0.47531955355263733,-2.373867242256292,-0.8694424597235262,0.42377201023631983,-0.6365900375181575,0.3927673478570206,0.9647526012312042,-0.7511382090721739,-2.0869818107900358,-2.2469395622473236,2.610234009337379
33025,408.0,2.202772224884754,2.2485454852865097,1.7916130457052262,2.7235827679741753,1.4765554092687267,-1.1669408862851398,-2.223741010993322,6.515930152839804,8.767262759563522,8.013566509802605,12.476352885887625,2.5673015066691285,7.294354326867914,5.395800582946169
33025,409.0,0.17696101021719457,-1.4604426932408714,0.326571819862739,-1.496068027710006,1.2323386273576418,-0.85499686622261,-2.6888083077584533,-5.851457854864407,-8.193781373519219,-5.95905808258318,-5.7440988075219686,3.292481358775877,-0.10854802604451308,-2.888817072897325
33025,410.0,-2.968768112831494,-0.04453776380610108,-3.59708504563309,-1.260689709095466,-1.2976085204550465,3.0151169393179806,7.103068377518646,2.6136760424089225,3.7198649574676175,-1.5877879607539107,-10.042449015914968,-10.407527284859857,-8.449402443774428,-4.606050306863139
33025,411.0,3.6731466731507965,1.7636469879854282,5.0220696552058115,3.1781693352817655,0.6658311683497686,-1.0191427685986554,-3.100032887225016,-0.16138450070454624,-0.7155220399097715,2.683126113157062,12.5354864737794,11.641494253611082,6.943364515940026,7.555468260325181
33025,412.0,0.35948574877105344,-0.5800022096092832,2.380435731685715,-0.8005655531199025,-0.37023270387542695,-1.722519332290286,-2.5155562818290633,-2.5455664660902,-3.025715165348746,-0.8629825963584423,-2.4587281579125886,-0.28553641884034775,-1.0681812296167443,-2.0184931515480073
33025,413.0,-4.377114985351941,-2.141098528698091,-10.112270955833868,-3.8559962478701593,-2.0256230096638888,0.7747871821719876,1.6810014047262776,3.985509652237038,5.500231878536496,1.6244823948972318,-2.2054554880239863,-10.238003177153992,-0.23659630343264482,-3.9409783086156054
33025,414.0,1.476569238317726,-0.680854544569037,-1.6322005518916392,0.046721080779718704,4.777472588094117,2.229969352728876,2.3721904495879578,0.3283160971023733,0.29175394535829824,0.7368274557392667,-0.058960239866880926,3.59947923008934,-0.21641270527064904,2.712353058201696
33025,415.0,-0.16038315061861041,6.544998948536456,9.50635236383765,8.682609221410111,0.2340087376410196,-0.7178243882342485,-3.844300754545479,-11.090737044517947,-12.775392793973932,-9.686564191016668,-7.040953862511536,-4.630138543363724,-7.469630558308822,-6.805320042816426
33025,416.0,6.464815592374485,-1.2137855910115398,6.49730542158035,-2.893704816056079,-5.6360767936772085,-0.7068696477895529,5.864031265396324,19.603223625963548,20.49706601786435,16.199225271137774,16.301474217373965,18.254343659922718,14.49037002078946,16.371188939383334
33025,417.0,-8.905296037500413,-8.101211172224325,-12.006475255975754,-6.612445642531867,-0.43272702976446453,-3.337654301680619,-5.751097581266858,-16.251872841443664,-15.18963411205602,-11.603426676469386,-11.820562482055667,-13.343311175541803,-9.217714699279895,-13.23570503065925
33025,418.0,5.813213303456543,6.467351308923611,2.5590236332361265,4.427485179423879,6.22107328440844,4.329446970846668,0.8318133959067637,6.581189587820923,6.095876296042107,6.1360403224110485,10.42647442507819,3.356610363549226,7.90458557781983,8.46230790161642
33025,419.0,-4.005482519394935,-3.341945847668754,-0.44411051584894423,-1.3064454459255934,-3.32553999566629,1.0115807697366286,2.510783704153024,-3.997317007273214,-6.340208461306489,-7.232317766377328,-12.724894858890437,-4.0580168329439665,-10.13005791687149,-9.75691100475309
33025,420.0,0.8508764780132552,2.7255951631821205,0.2921336658098781,2.5705544937936047,-1.617625464681268,-5.777221696564634,-4.54413014877219,1.473008284029813,3.7965066511955143,1.9607097601737777,1.6161158078781241,1.3685386500256946,1.6446823423113521,1.0439045732845962
33025,421.0,1.296440393545648,-2.0060879418496995,0.7295789984750201,-5.283784369132718,0.4903963238937834,7.220588733562579,8.412073974646976,6.317997383485768,5.56937033136218,7.041862717597144,8.140226974092855,1.5342592147901257,7.366172002153657,9.201921984382889
33025,422.0,0.20855199848013228,1.5951032292081244,0.39252604398346946,5.529421427777965,2.643317686522799,-5.099355229267278,-8.22866193833011,-9.691675043242679,-7.197541988030515,-7.802258698354851,-7.351317408544503,2.460427680412451,-9.165909810256355,-8.250800497197087
33025,423.0,-0.2851143436889849,-0.264924259441365,-0.6822702083743764,-2.194876713124618,0.8946597763458648,1.4660775683297764,3.155846754475075,9.041942148326804,5.490886309047134,5.310802792738961,4.443420200069621,-9.030614721653578,5.328038706658408,4.144997554114067
33025,424.0,-1.8072200438351587,-0.8639954634033664,-1.0342040247404434,-0.9298640051387146,-4.6497988767088465,-1.315525621841882,-2.852943869305637,-8.668559527359616,-8.590454906511606,-6.287804198926892,-3.333853333796842,9.271219658539742,-1.0124507591581704,-3.4187964385967753
33025,425.0,1.1113932068997379,1.5440502929109954,2.2193267604016107,2.685429753877397,3.9963095079714606,1.9597385330869734,3.1807751854310204,5.101326912401987,10.131748210289388,6.005511377045384,-0.7379207312181109,-4.319899720610689,-2.236217980047993,0.7794020273404278
33025,426.0,3.539528881042372,-2.299046318172117,-0.8539310356489835,-3.1215721281437787,1.0745803434442323,2.266507920036773,3.3762098426125142,7.5998916146836315,2.268683278977008,2.8121579426640935,10.193229787187661,3.8601866493056676,9.54580411233275,6.698560123674088
33025,427.0,-3.3709385055326777,0.42586493630765077,-1.092574088046856,-0.15072544760451834,-6.316685515913111,-6.4767000965421,-6.084617293469297,-14.50994309130077,-16.17009897260031,-10.086132334413506,-13.706377327501439,-5.059965059144691,-13.3571244777829,-7.208091041369446
33025,428.0,-1.3416809184677483,4.212539596608892,0.5738304898829654,4.450141148820741,2.6978196039806477,3.1636799682140833,0.22634694469859795,6.818101422302767,13.914384723764229,7.478548400743577,7.920777122980041,3.7030268376588644,8.158169746720688,-0.7193820250138572
33025,429.0,1.33086777905244,-4.82241171144009,-0.019855353704979706,-3.761327457454211,7.885744209600773,3.186490337887875,0.6826032003658185,-1.9267256678763793,-5.727799048524101,-3.319600289172431,-4.561585894485358,-4.271721773432336,-4.0185120013131375,1.6840787873014875
33025,430.0,-0.23063577362124477,-0.8664813868146979,-1.0701364020468773,-2.0020938998131115,-13.036624042174239,-2.8566711972036245,5.534245287982049,0.3466228188262086,-3.545835475927703,-2.688392554950287,0.23192236622132612,0.8745381619120067,-0.7379978347219129,-1.3437487848378709
33025,431.0,1.7999235040227823,3.401377143831514,2.667374251208642,3.9459614971771977,6.690644229599812,-2.6158869694566107,-6.5213699023558895,2.970000658467395,8.665643749630917,6.00131650888326,2.473501279842395,3.1866907015903507,2.8545735284276823,5.444193205962918
33025,432.0,-3.0768584457885666,-1.5862730232570712,-2.6189109538529074,-0.7503080810432472,0.5118053260792905,2.3167316024031095,-1.363132049957514,-5.241405179103182,-1.9843441566682074,1.452883089099256,7.740380566973247,1.8163366627690074,5.2170252789237495,-4.598023842935529
33025,433.0,2.0657702161816722,-1.3725818200043314,0.6710804899366423,-2.3758517575026943,-2.5502047690909215,0.7241938310500977,6.810641637636785,4.308433880474535,-6.679229814609954,-9.731386747753788,-16.440721390947214,-6.954271796909847,-9.920293798078823,-0.9411551863415433
33025,434.0,1.5081866930315897,4.678660042160541,3.003352130742691,3.723497198218009,2.083303351092102,0.9565279388991925,-2.022653607637693,1.0520305418725613,5.858411399317308,7.035433576849151,8.003128874113639,8.72156604341804,2.302762547000679,5.875809798458647
33025,435.0,-2.935936514542032,-4.452947088835288,-4.043749651249332,-1.7960197365101358,-3.8429757319832163,-4.328449283625368,-4.790856207668774,-5.11821602630533,-0.9611146898271556,-0.7295557538884943,3.5780090792430492,-6.8543985075008536,3.956779794382772,-4.779516246192742
33025,436.0,-0.8314552902510322,2.130797313631721,0.26224848578235793,-0.7086063129192084,5.928438267104575,4.04656850919697,2.9096619784611484,1.5173302241096778,-0.8078374570788682,0.058634063144140214,-4.5355392548683255,-3.0583657316553996,-0.6428469840053275,-4.8169659014611454
33025,437.0,3.8579552862882984,-1.9185877055332945,3.0861826604198725,-0.6138183781211595,0.30292954260748317,0.9859895654886763,4.512148302521002,3.0776987098204067,-0.39878145327828207,-1.2916617551481515,2.574251448265745,10.00190953587381,-1.936260106390943,8.74947260787258
33025,438.0,-1.0430889693866732,1.2845696615564535,-2.090554175251775,1.8806848626640686,-5.049594924578841,-0.8133815307530696,-1.660896213969771,2.4703326080491834,4.783092691632607,1.988422501627987,-3.0132598327473907,-8.796068652897837,-0.020454597994817192,-0.18832490192120588
33025,439.0,-2.614424499548832,1.3626680812606935,-1.0092162903583244,-0.0726315033804686,1.5432506083832418,-3.825646397269731,-6.311706289088737,-9.876005315908907,-6.245973290268519,-1.122291841347992,0.8815819793732942,13.131416147176955,1.1760802477414956,-6.685815826278386
33025,529.0,-0.28068086880082177,-0.03305447822878094,0.7065958965620602,-0.04467858075664921,-0.4802401750616454,-0.8913069315056639,1.4228958628916288,3.471160134523611,6.211494684062831,2.2280091134529236,2.2085166965036365,2.0721141120511355,1.401964870514803,2.561299206418173
33025,530.0,-2.1372362270635,0.07332440296414333,-2.8525229823538396,1.0036558586365665,1.7073551356392045,-0.4765973077458696,-1.606228069888445,-5.371417172534095,-4.243136375378008,-4.432412554049428,-5.7387814303069185,-2.408520874171767,-3.319534078123379,-6.338932342321794
33025,531.0,0.8135372983554987,-0.6384618549601058,1.7516290582151548,-1.2508062598240315,-1.5664630454300195,-0.08941845757831857,-0.33333957376012435,1.7327109392476423,-0.7599511224107189,-0.04666327624374844,1.1409310082480104,0.5764158031246609,-0.3340629011419445,1.5223567671774418
33025,532.0,1.5730535775173422,2.881863055573664,1.272967345043373,0.712707227134139,0.4466553571488987,0.6809024189520159,1.3649161193557724,-0.13849172552800937,-1.079056288572236,2.16114383122272,0.6767315242300924,0.27552005540551505,1.3694291869984667,4.175408462690346
33025,533.0,-0.2178790706209881,0.1607247457458847,-0.9646956327855669,1.4344679715378241,1.5927477626918645,0.40744370385484174,0.06743500272502345,1.7503179345390762,3.7801734919264547,0.3003290532156022,1.0936756456404417,0.45386476793690633,0.08133669126821275,-3.1590240590858407
33025,534.0,-1.7444374545530508,-4.207711203493595,0.0040575339232127305,-1.5768522856644651,-1.193493416035757,-0.9948714464785695,-0.5653103022831303,-2.82091964478262,-1.8691109835004376,0.03830684617278379,2.5295120987280093,1.4629774831505067,3.671410471439078,1.519974925489727
33025,535.0,0.6276922619446914,1.8156751843205328,-2.239119680268466,-2.3219954670269303,-1.9934847767269446,-0.5772279454552987,-1.3836312431392024,-0.3924216804419629,-2.567604269894513,-3.156560193780905,-8.898112234238035,-4.1187595619429125,-7.430828218602258,-4.186776224388463
33025,536.0,-0.1549823918938813,1.584122539672201,1.3240733029490244,3.196642838469689,1.294351488874895,-0.036290521337335235,1.199350102711783,3.3793541861449796,2.796405284338494,3.6652058232888187,6.664843196080518,3.5900214652843125,3.917853900266053,3.6547030218813603
33025,537.0,3.2047530882374247,2.182484147819409,5.043597153615185,2.5331142881370035,1.7578491432789356,0.7141826011949561,1.3386063658995617,1.9169866207285686,2.8371606277813513,0.5772297649123423,3.168902338671991,1.971800677099047,3.0350278577540024,5.075069740755158
33025,538.0,-2.6200792805238606,-3.7706350306211505,-2.2088659507412274,-2.4543610624955043,-1.6666413775151874,1.4958752367541983,-1.4912426983622495,-5.924204456226278,-4.090115059429937,-0.6441039338229118,-2.532269538187446,-3.6539701527368926,-2.019854779819088,-5.874378140423158
33025,539.0,-2.797061483120924,0.989678063420623,-5.495616528356297,-1.9509813563164933,-0.41688399392402076,-1.6184842803196204,0.20444311648422087,1.6554863523195777,-0.4551408889035251,-4.541733157226716,-8.423842800432976,-2.531636343485534,-5.586207533260307,-3.8099421057172194
33025,540.0,2.284009332083116,-4.833755849118962,-1.3927522144245863,-5.468707735955604,-0.8397703639362746,-0.05463762902515157,0.5415304548177104,0.8885721403531939,0.5268879448294825,4.317282050932054,9.49209133278087,3.354654315964595,4.321147391670241,1.6277311814670732
33025,541.0,3.559195451664067,7.987303699696792,10.739700838657452,10.775424863682392,4.048617442769466,1.5613158279394312,-0.33413670654133654,3.549467406023176,3.907299501161095,1.1831660946973201,4.5201297126632305,3.427545176661802,6.13015119162824,11.151013099105146
33025,542.0,-5.178308067250601,-2.396138668350442,-5.186351750857206,-1.1464463797276423,-4.167251088282558,-3.0391305489588483,-2.0967414387294916,-7.418681184579867,-6.606493115845655,-5.716755345238138,-14.299241742799328,-8.125390001230272,-11.488775120461593,-13.625829829012638
33025,543.0,2.5628707420378625,-2.313961663548085,-2.330367677868928,-5.280159895284974,3.874461504241431,3.0971547660658203,3.28275348677154,5.535451757374634,6.2627766422575775,3.9142342262914234,4.922366771346617,7.77815015460984,3.787422762516112,3.661539310997007
33025,544.0,-0.34770433138503165,0.8538635886654689,0.7927869617286412,1.2523738154478856,-1.8724715911761365,-2.0635331415021447,-0.3827770719112422,1.094972446474781,-1.7927682416952422,0.8453148871292626,7.247639623908537,-2.208990859406466,5.407805630377588,4.363959645461087
33025,545.0,-1.037399659672765,-0.6181450819664533,0.13588365035620598,0.7652305759160889,-3.2822543882015935,1.4554377093844657,-0.5235275297791802,-5.97257465645216,-3.349728170563189,-3.253275531069086,-6.123971930811571,-6.904544224716691,-5.078330468281177,-4.392731593877471
33025,546.0,1.7296471527492407,3.0720511928042527,1.7174363292212433,2.1131118059977183,6.554437806643875,-1.2530498369050278,-3.368434485091335,0.8062659829309524,0.7366406099815705,1.5813058077694109,-0.04185177188447042,9.770102270163587,1.2680801032093783,2.162487869664357
33025,547.0,-0.7134990750320789,-2.1218915509710037,-1.1199558553372135,-2.439450291831516,-4.351208013586625,1.1037642122445526,5.746726616709132,5.213894529124346,3.5786737504304043,0.9495413315662162,-1.0667034547103853,-7.688465394086741,-2.230823833624502,-1.9325621513503997
33025,548.0,-1.3871600360799015,-0.8691175547940624,-1.642649432172366,-0.9919355017213043,-3.847694705531783,-1.5209025882847342,-4.092882160806155,-2.6925251927096205,-1.7102052459073924,-0.2221931171911251,4.710602932953339,6.858856025985368,3.8790805153403696,1.6566577048466975
33025,549.0,2.775954766263151,0.7396092923442694,3.6692495561190874,2.062107041116935,5.205732577313064,1.090270421181252,1.560694340986796,-2.237506275961781,-3.596222413820339,-0.45300568480466197,-0.43429080291605615,-2.6928936737219082,0.8011687031643504,1.6193800460624068
33025,550.0,-1.6208160340015247,1.5754642367859084,-1.795656038507822,1.0281018550304069,1.0213081393344225,0.11812139792685628,0.03627465249842743,3.857096282368964,8.226681209819798,1.011233281353391,-5.310998525257357,-1.1265940047267406,-5.599197523528311,-3.528711930892186
33025,551.0,-0.35075603730815175,-1.7062159817175448,-1.4781352292885046,-3.7957906263571104,-0.869610490876461,0.8090909839863265,0.17131220962528104,-3.050535252411457,-6.9565223839659645,-2.3595041700971287,2.784881300743958,-2.210109070873351,2.7028893802440344,-1.4473415646840238
33025,552.0,-0.9531006437667102,-1.7734863933390805,-0.5137045191140857,1.2936256946751925,-1.8563015472398945,-2.6105840811041965,-1.466959652041659,0.21212255936010038,-0.8479195104404837,0.23058047130064807,1.6493537295019145,2.4769601797955723,1.6819540654445042,3.0162929429605363
33025,553.0,5.593224605866979,5.484262935132072,5.525469358366941,4.0584435266905885,0.6263272935569297,3.417789889654319,4.2421908525833345,6.11166059756442,7.654182322709687,3.134889756267274,-0.5541119167464714,5.22050774001649,-0.7613742814678943,4.287389612837295
33025,554.0,-8.49724526150019,-3.657947660021769,-6.174000788437844,-3.264189588979292,0.04147040363489651,-4.461485736807234,-4.684300001450897,-6.135708041650691,-3.43530313242508,-1.7751996054775532,-2.555635616930161,-7.723236816895337,-2.2622605850154827,-6.502807408408636
33025,555.0,7.216196649802772,-1.204530261921711,2.6824050313264536,-2.822106053998791,-0.5412914050986402,4.436802441685064,1.3908165543844504,0.028823832885930045,-3.3675514054587694,-0.4679292457348012,4.309791449157373,5.003371565087743,4.573637228951842,1.6837300086009073
33025,556.0,-1.3308848947942167,6.653607953418824,3.6953530942147452,8.681112537698379,3.183612998822838,-3.364418545064801,-1.4966572903484625,0.5088620413954992,-0.20547487647658969,-0.518173993104444,-0.7648809273400232,-0.8325902739293696,-2.194130274227831,1.5331164587908148
33025,557.0,-3.8722017753585156,-7.113147174476957,-6.491303899570713,-6.96633304251187,-2.383336498271273,1.56200162900452,3.261312929686291,2.867676527031719,5.505049458005001,2.5672397912102802,-2.9117750341874675,-4.508693394998321,-1.320895125097401,-1.1593995512998845
33025,558.0,2.441410673064958,1.561843822480924,1.8453146234840148,-0.1681736531587923,3.9521573468444515,2.085288217793721,-0.44420769761326184,-1.1795887118275417,-0.8244664700821431,-0.41144186105470126,5.1650782769984005,7.717314421840658,2.9420980865137096,0.35410478404762813
33025,559.0,0.20283525788494927,0.030623385428970806,2.393927195631388,1.326883864037221,-8.578876087168247,-4.41657292062456,-3.847123325578522,-4.2115474010471345,-5.82363209027206,-1.9510478593169225,-4.958853607689676,-4.595415941904566,-3.1821797287371076,-1.1984645469609028
33025,560.0,1.558633448250717,2.7932596181968954,-0.4965332916035905,1.8905362274439526,7.308738418433826,1.6321147800298874,-1.1316042454708857,2.9970265791860555,3.551016433480701,-0.9547553495435004,-0.5874121410487732,1.9150522820261813,-0.7019623985503074,2.704232788687726
33025,561.0,-3.658582119532401,-1.3734199829658387,-2.9148277701556893,-2.142741336515016,-2.11964771054199,2.322833516158468,10.460919744162474,0.49613775367541635,-0.8152781809048832,2.3071999277121407,0.37345881092831235,-4.310593429386575,-0.11066781748888488,-4.2369689139133015
33025,562.0,0.264292694017076,-3.4885491564525353,1.5925176119085336,1.069447447325583,-0.09117192853064537,-0.6937700879547286,-7.21707310259734,0.7175545694123322,4.269023965663358,3.1179259384403437,3.098719636655428,-4.228036827755666,4.586646348387543,2.8604334625031314
33025,563.0,4.154648880875108,4.762059603893437,2.6566757399522594,-0.7819682440139637,-0.5475912686750206,-5.112704046873397,-5.930563473521499,-3.5694115364225283,-5.389290397110827,-6.349660786175242,1.0395187738773153,17.841384575912983,-0.7325794933518779,2.9778323784713443
33025,564.0,-2.3679671450124253,-3.0776829884310146,-4.298244373033874,-0.65931729934508,0.3252415492657086,8.046679542683115,12.024891634412132,4.505048522195196,4.331338307416921,1.8556601810467903,-4.86802023616983,-10.116915237057668,-4.012122540922796,-4.614051006991502
33025,565.0,-1.7461223609348409,0.1687820008501255,1.753457172471684,1.5986356420542869,0.42143888317860956,-6.143521990001297,-10.15438427750476,-6.037948839126148,-8.705541282198674,-2.490174052711687,-3.484777587034138,-8.487461778287347,-2.46197646152142,-3.6109353329282143
33025,566.0,3.3871524622899365,0.49450032949966527,0.3009337310802209,-0.6753227206343482,-1.506225263102614,2.006948690668086,6.438978652335891,8.540715344106346,12.490208375089367,9.672244155556164,15.806646721702421,11.74848414595732,13.919153599121469,12.982672755939927
33025,567.0,-4.833158175736724,-3.3260358971167143,-5.17759891448323,-4.947159264436188,0.4462722805382633,0.8325587937787091,-1.7462582468187264,-6.277650155970427,-8.416975783139538,-10.769284461326823,-17.65459275396326,-10.578516938814712,-17.27907674594141,-15.01440619922148
33025,568.0,6.239026989679459,10.686382129322464,12.02690248577482,11.621530754714868,2.5590109513490624,-1.4429107381171526,-2.7127122998614936,0.08295185092093149,-0.4698130607147135,2.01952819875169,7.602554038900607,11.56472545337623,8.455343703654329,8.98823491044238
33025,569.0,-2.6235151705970488,-8.915751450091054,-6.469855624269481,-7.202747122896579,-3.6112803238254223,0.4884839329408166,2.421295891391882,2.7093255808888834,5.464833884966609,6.168893654481028,3.6354406227980505,-1.4727291424370286,4.1824816863853265,0.6094583838032968
33025,570.0,-5.304021662545299,-6.1201446792968035,-7.9665623047671765,-6.391078199953242,2.0720126118983373,4.199115405667602,4.807494685232292,2.6359751587270353,-1.208916314991047,-5.136812735528196,-8.80639974096237,-12.851413867986832,-8.726589829879522,-7.194184241781013
33025,571.0,6.208504188934288,14.756047480054992,12.855111094565142,13.673910269158721,0.95167527818721,-7.919193378065028,-8.120040384167169,-7.182667529549562,-3.4080463908542313,0.8503481337578442,8.00545667935154,12.76000656260494,5.647832191551654,5.119955010476872
33025,572.0,2.0622957083750073,-8.097696552881128,-4.275519712157955,-9.71855870927315,-1.379309099691696,5.586776717324078,4.072082654868527,5.71257562860119,4.170516376408891,1.27322596108176,-2.2259458187821117,1.2434555808398002,-1.1424153354527569,2.7057988618864286
33025,573.0,-6.152578701228165,0.23132482209386396,-2.6742617564174402,2.90419244237172,0.4570135284393899,-1.4758252547438389,-1.648849602986818,-1.1595725575722113,-2.945047877304745,0.9407497099573696,3.250392092401089,-6.221611798014241,1.3940340575601198,-3.0846146833879295
33025,574.0,2.812630163381993,1.2628602107832627,0.8812901675991718,-0.3146087472240957,0.29604650156748136,3.5531533892022082,4.330803306957023,-2.2850366847375163,1.4899422807427811,-4.605576656599677,-11.692715829466088,-4.130209388982191,-5.743144852713833,-2.731681332359429
33025,575.0,-1.0301772355406023,1.03296378188978,1.4392934405509443,4.013724356497011,-0.373667075516245,-5.987311777675213,-4.1152940102835665,0.2651480666750814,-2.320076287877775,2.5315019479747143,4.951985018417659,7.006590509308722,2.8010951574740766,0.49799851366142533
33025,576.0,4.2076862024494766,-1.2620990625516662,0.8957299875615448,-6.804015757833991,-1.9898560659013356,1.8934738958875172,2.02119534117303,6.027555650107953,5.745875357033103,3.5452539875018907,10.86014848507634,5.150862122497784,6.361253423253711,10.299103714606538
33025,577.0,-4.88854105861007,-0.748655784738034,-1.2349975350908835,2.853217784304526,4.184168619533143,1.7881076913817076,-3.0391640321822138,-9.778011918177377,-9.630085441688156,-5.73648374939965,-8.176217296274508,-8.534798452527575,-7.439544604122727,-11.582744954482287
33025,578.0,-3.7257821058040967,2.213715974687098,-5.687907599764319,2.8394554025110423,-2.581414211850781,-3.5354451336194224,-2.0159632115326644,2.0926475823772677,4.555602921983365,0.29456044035348583,-5.882423144140677,-6.155050277663506,-1.577098821650381,-4.892371542826336
33025,579.0,10.419356435775903,-1.8737983451655325,9.43625192212302,-3.1721579565456395,0.7466474001210699,3.9595941980576406,8.904429578062569,6.586313949751144,1.802898027484602,4.726104977935115,10.50732182162768,13.478411121081422,7.876822349628483,14.467326888477128
33025,580.0,-4.270689568838531,-0.170478824449809,-3.5212414398069534,-1.2234190239937526,-2.297496959014076,-0.0004113714258409118,-1.134261173362205,0.23034456450408314,4.487969653621118,-0.7500514392852686,-5.147057644548227,-1.2997129677340205,-4.577167717177584,-2.2029000497990197
33025,581.0,-4.001066119787783,0.09831695647408623,-1.7156818659299056,2.6170477586666756,1.7436131592437114,-3.9162443518741448,-9.995403150470022,-7.821707738758683,-6.897390845578169,-2.5818801055032345,2.9454109840643916,-5.419058956539139,1.4216572656266635,-6.698723505662162
33025,582.0,2.069014760159405,3.063666059670343,1.729111514852054,3.0163358482724547,3.5337789430521696,1.6927142576324812,4.491677961882257,-2.4706772194046955,-5.595043426160544,-0.598787937755322,-3.597218197133195,-2.7657707741460946,-3.106891359308225,-2.9773758635174836
33025,583.0,0.8547988244112688,-6.373076060297244,-4.832666908628315,-8.032578856309687,-6.714732748441907,-0.501457525024712,3.926644448457445,10.854026294176155,8.965824553092787,-0.6494969970880966,-2.2313354909831133,1.9545326298975425,0.16267826029913834,8.208098602614783
33025,584.0,2.3127690202758266,5.342378307158491,9.50599018648882,4.410001068532996,4.962489327433982,3.713929763113601,-0.09264972375586922,-2.822199905833024,3.985843327167487,5.874745783665038,8.935542589233656,7.514142330973257,5.641874849667623,0.7700196409088669
33025,585.0,-0.6547316095630684,0.012247867292522585,-3.5670365930687993,1.3199960567057865,-0.2153354595325503,-2.607040588922125,-2.67877553892167,-1.7929229648177696,-7.707868126120232,-3.901778050092144,-3.532353684853934,-1.0247248696101643,-1.241596200365425,-0.5144568205694569
33025,586.0,-4.969922606843603,-3.3224457473735676,-7.552600226067359,-2.628532157015286,-4.217392414315718,-2.021386971384416,-2.546325185975178,-2.8287828806990696,-0.917842771463377,-3.3057776494229927,-9.065569628965534,-11.259085448337213,-8.915793758714639,-10.332579509380558
33025,587.0,5.136772053047636,2.9684308707604394,8.095347707310413,1.7753867704340465,2.287011602824027,1.5488564924654717,3.1004933738805285,2.6507017647313305,5.717464143574823,6.416489617736051,15.45715213254661,9.692432090042733,10.906766077040057,11.450471976690771
33025,588.0,-2.3743691965091784,-3.6060305809470528,-2.8303312325410204,-3.2175415248938393,-0.19911258882835625,0.3792264087945014,0.044798309429364025,1.0798108989133333,-4.971130780640802,-4.25936789277063,-13.526817620044795,-6.297982281419895,-6.511130458906923,-6.728343544098131
33025,589.0,2.0565423807085317,3.7835484085323117,0.7454780471392191,3.0663376346089706,0.6107425029600897,0.8801675835101541,0.6371239464241079,-0.8122642829157094,2.909412820088434,3.2656495507021077,12.407061929233251,11.704429268483917,8.603933583658925,9.151677702213512
33025,590.0,-2.5990278527100905,2.6859975150443596,0.8378177491672503,3.536610487873297,2.118631298546351,-0.3363429495963892,-2.560486880301056,-3.674555162108774,-2.4398643477259867,-5.506723847936918,-13.15044184811493,-13.758608855468633,-13.482055019811433,-11.075090175988862
33025,591.0,0.8280998335197403,-11.029532459591877,-4.783325921162039,-11.534687888930257,-5.8249564510928415,-2.304032547147081,3.6167861721419676,6.583559095023354,2.475675036452653,3.734105206448959,0.9546472163060145,-0.4104283629901282,5.3745290344437215,1.2738457611238019
33025,592.0,1.475792174904445,7.8317111609773455,6.819604600346327,9.907632016512057,3.2653699549350073,2.3666790784443386,-1.549579254779374,-4.63974736905697,-3.173235000906235,-0.09990707801770782,10.511116644884769,12.358165375585497,4.181141086056364,7.867869017593634
33025,593.0,-1.0106892554246194,2.3351131704365855,-3.2013684736337673,1.0098312901662787,3.8357389543347793,-0.035739123242887416,-1.9674080692955407,1.4248260952873544,2.7063397521278247,0.7762622071292569,-3.133276804133395,-1.399294835437555,-1.0729602223868362,-2.6540671956941146
33025,594.0,-1.3903550788140748,-6.166678248501409,-3.2119346741799077,-7.3064306113779836,-6.721789470382532,-0.47417038995678595,1.7611566470814815,-0.2650131681187169,-0.8223653159207132,-2.7852948722179782,-8.846370184279149,-18.805923148120606,-4.996118514972807,-7.371234936695018
33025,595.0,3.6659790678137725,6.9278670234811095,8.512535442773345,7.669017943040906,3.050076551479304,-1.1662866267369694,0.9472651953435154,4.373691201742201,3.924601313225409,2.965189624825019,9.165802123066054,24.227739540701194,4.1874490293795255,11.36083185421774
33025,596.0,-2.601779543613997,-4.682239047377898,-4.863033762860891,-4.325085241735177,3.943185614107339,2.207484231082116,-1.9418223388244265,-5.733742391056847,-3.9642872223043746,1.6803065316391255,4.382126789209785,-6.430834536085552,3.958761840646929,-4.082034161717186
33025,597.0,-1.8297862793421409,-2.1440432680206953,-4.544847646611707,-3.325656286508284,-4.715418021721945,-0.8194502090381306,0.9166430989730507,-0.7382952228319546,-3.3702967241340573,-6.806328352949489,-13.631555642986555,-13.323526231088671,-8.690510509071743,-6.12107459979423
33025,598.0,2.3690367148429914,5.272200880125855,5.652198176702768,7.4210788448745575,-1.0406409623681654,-1.4281141323077513,-1.277141733320807,3.102604813133677,4.7101872166515655,3.165487808944725,4.548125778276589,5.141403417474457,1.238976323699184,2.76338093154099
33025,599.0,1.8252370469702015,-2.627624721868955,1.5563722419306742,-4.362527883728141,2.4953511021908383,2.64823046688063,4.042659647639283,1.9953888482312365,4.517265174819599,6.867147439542954,8.446143911621046,14.696829106533372,9.19664799279111,6.138874461899633
33025,600.0,-2.2565763575169804,0.8511265711866152,-3.6253600971054283,0.9226915478754272,-0.2988006237312355,-1.7064889645944241,-3.81440318848556,-4.8789559913248794,-10.208912050142086,-10.13807658404561,-10.702106460128984,-11.798065033093547,-9.866913218682168,-6.0964908048563515
33025,601.0,0.06588381795786447,-2.222721376410618,0.0668065459689764,-1.1180308286229277,-0.6729827200058267,-0.5294416268953448,-0.05322205582173467,3.5735694574527486,5.839960959391167,5.185381615904397,7.823296844512036,0.7589906287378554,5.307996637150598,3.076959770060679
33025,602.0,-1.2639198444620199,2.5451183611074413,-0.39918049944073886,2.373378609532363,3.462720550090971,1.3523368199980936,0.5236808979377763,-5.038425395933871,-2.4180752414689906,-3.0108948675849234,-6.032047578086068,-4.584331866830503,-4.186582854112256,-5.316380742751253
33025,603.0,1.7240024308237771,-0.9606689896339091,1.370577594415387,-1.936950914603635,-6.091623433153352,-0.6703558340688112,1.7752873361770511,7.668668275188555,4.503065895878436,3.735666231546247,3.2650014889411096,7.938722571469906,3.424351018785181,4.961393227091836
33025,604.0,0.25556598959393284,-0.33037927569710845,-0.32995060188515524,0.38299997784364237,2.749704924700012,0.4303256909457218,-0.28234787249557414,-3.0617324651518594,-3.6013813403299046,-1.5168472740738217,-1.2519202052558533,-0.5280133361008907,-1.1029960496213285,0.18498262746103222
33025,605.0,-0.720284581488265,0.6441228405890271,-0.3899513161747308,0.36880176182469526,3.6769114283182844,1.3552374536143432,-0.6438949088803518,-1.4952680872637458,-0.44864376645055515,-2.6651406387999295,-1.6916409925435048,-4.330597250912842,0.34901748657074805,-1.4028799973840087
33025,606.0,-0.1880854497034008,-0.1499670716202779,1.5646351351554912,0.7355692207983573,-5.066834086176549,-4.1126811015818845,-2.1096936542841327,-1.5517688795627897,0.11060486605211395,4.042516095952795,4.870205816233497,2.6686279317575874,-0.2533200300794505,-0.06926589018259222
33025,607.0,1.3543377110636143,0.24834797392012575,-0.6240519344436457,-0.7751195266273072,0.0806673119319079,2.9478990475137756,2.8046952358566024,4.31578733384757,2.1171279690468374,-1.3270290203656039,-3.4387104684680985,2.085054725698054,-0.43884891828352224,1.8164739725511723
33025,608.0,-3.130610965875725,0.47567619599112376,-2.338746320003491,-0.5833529407801841,2.7400482793415826,0.3298253803325544,-2.2385583146316215,-3.943297763879407,-3.71393395933924,-1.5870304937121986,-0.9269549560575818,-4.908857115619416,0.9936434078783769,-2.734939287201989
33025,609.0,2.8563542118926826,-1.9827626697849041,0.8927577335958539,0.7959797738922418,-1.9845391614532808,-0.6944435982843586,2.5285137369042054,3.4314907107615085,3.926485963649405,3.032490950565368,3.756563510411411,-2.148348253853378,0.050145753867727905,0.14340209673256155
33025,610.0,0.9015329333442814,1.5382537815806003,2.234058506433488,-0.8229022824180205,0.7104489070010302,-1.6188085265780856,-1.3939321845411143,-0.5377820170608274,-0.5564108830232719,-2.2335770460208906,-0.9896987128190169,9.473904593257867,-0.760574719855331,3.2635021106281386
33025,611.0,-0.8495561022205607,2.63433250713026,1.4335476776497522,3.3582463486615275,1.1648310063508376,3.099433351881185,1.096423814655303,2.4694207242313055,0.7890501075970988,2.7535829852771556,0.6019596112596517,-0.5084764943988027,3.0189084870107443,1.184703508210017
33025,612.0,-3.789393486061339,-5.599384309754861,-5.34479661800798,-4.3114782618003815,-0.7957240603835594,-1.206275350660956,-0.31629369376326366,-7.165476726363821,-2.2791039291128143,-3.1730878277278833,-2.1642419608828263,-7.440776412404752,-4.482752515297488,-5.636670138877502
33025,613.0,2.3868288346412996,-0.4536050156143929,-0.0713427361097061,-1.8583462647378681,-2.5684061396537885,-3.615829462994391,-5.152159710713782,-1.4445900787305561,-7.300458239776422,-4.474481369848558,-4.277685215403341,-2.386375161796906,-3.490395479786141,-0.8037913095732812
33025,614.0,3.2220197262613333,7.196746142946271,5.804204216844653,6.976119895192074,2.8615473824462434,4.931387823625858,8.651248140923297,12.334227433207896,15.221679336897495,9.120452045353545,6.91934818070019,9.689004464511719,8.772926360860396,6.129313869254119
33025,615.0,-2.3125025678153683,-3.7671365999178583,-2.777601482701453,-3.3998774560694294,1.6337905747688986,-0.4322551124334879,-2.8683278023013834,-8.55608121397167,-8.236624561702975,-2.8560008043369365,0.6432951784977199,-0.8772874319121122,-2.310229357782262,-1.6494527345874488
33025,616.0,-2.7443765464864,-2.853617418672272,-2.3325573049338573,-1.789715929003421,-0.8592620958510508,-7.107976865884353,-9.517070731687838,-1.642527745953906,-2.107794138429796,-0.6595784395094313,2.312040633507607,-7.83291620679983,0.0941101766248238,-0.689403994077125
33025,705.0,3.868218608334781,4.558777199250329,2.1613075972362075,-0.4250514159985528,1.1830486611456525,3.2581948344650726,8.311901353488443,14.693467146290894,12.226331539499569,4.2248267673536715,4.894599744401272,11.724916464996005,5.20777496489013,12.684687351262212
33025,706.0,-1.1527278243487586,-0.4834702603431644,-1.3514773292045739,2.972179224051658,4.570627122515173,1.448249909974031,-2.407131402236562,-2.6221832495669695,-0.9267273112085768,0.5643774544438465,-2.7042626689033504,-8.76352233960344,-3.3650034038171484,-7.475435858088989
33025,707.0,-0.696313401830249,-3.4523742714467325,0.9442113492991808,0.15215299525019432,-4.821886417386715,-2.278164890346293,-2.3605671143956783,-6.915019401538444,-7.35853764194826,-2.484349796955655,1.2226145477726504,1.7311797664821995,-1.1905733655359327,1.9168785247612838
33025,708.0,-0.5857782018644286,1.5066378159419251,-3.142065440116678,-5.355941567178938,0.7505377762497041,0.4354727547693642,3.0779990788200884,4.1932692199702615,3.419064127531591,-1.9802917098905795,-5.1655574129101005,-6.625221053547829,-0.2192333659149277,-4.5017381904374965
33025,709.0,1.8625737514651561,3.8177282278211884,5.051644518714923,5.432915303730137,4.300085022490375,2.4418904140874886,0.28793985870201055,5.686161533144059,6.456165207879728,6.127661148621534,7.770313177751795,14.722452598685358,4.559299681197402,9.496140503528693
33025,710.0,-1.438410283100378,-5.359347014333785,-5.330384378810059,-3.361895559234206,-5.4340689913562485,-2.879269931402721,-3.3930481247405737,-10.636154600903328,-10.56826589535774,-4.703316434344799,-6.483083031193296,-11.848955236375396,-5.786585890521302,-10.86432895753384
33025,711.0,-0.441832672676977,1.6940859863531585,3.0502408287243554,1.2791910876578676,1.391981014735375,1.0079080844059334,1.6436482318158347,2.7996477590561852,3.707363802931379,1.1671019639370002,3.600451346730953,2.286669501843246,3.7498483526055857,4.761745200520206
33025,712.0,0.7766406526010279,-0.6084354153693177,-0.6904755787808661,-0.8307696490647132,2.531343493444208,2.1429100227913587,3.882209118958258,7.819891671498482,5.152609147726086,0.09204746898643279,-1.655733838232326,0.9655631189809348,-0.6466539195115075,1.80063405210025
33025,713.0,0.40313609111137083,1.5388934543124257,0.7257729510253945,0.7512458723858231,-3.3430261688025382,-2.818956531256763,-5.133143258680715,-6.179887463393385,-2.9019016121437957,0.5307544574386185,0.860725039793973,0.8716515744071174,-2.3153860255461574,-2.6620926250334733
33025,714.0,-0.8487397535000305,-0.0030898504855123576,-0.9874521822794726,0.7127712762817922,0.22355156046315017,-0.35422273959378003,0.04028447708428473,-2.5919239660386353,-5.243200061208533,-0.36958398997425945,-0.015299460508245488,2.4056688359351774,1.4305505410243278,3.083182641169387
33025,715.0,0.737970037748287,-0.45970944643373457,0.8017713020726269,-0.4187346086946704,1.9244703587877723,1.653529700721922,2.588785285269754,5.9680970607379535,7.2950858428862375,3.238054850195624,1.4253350766086008,-3.520666346526145,2.8555945724761536,-1.5587325125823703
33025,716.0,-1.1235342092117868,-0.532862384398932,-2.2513139632975943,-1.5260168946334183,-1.535567211563997,-1.2593711388313338,-1.9413029546508405,-6.114170932465658,-6.326703407596323,-11.017441492990272,-3.8173974336517666,-0.13894105678115665,-3.7163373937407194,-2.7008652043857033
33025,717.0,1.9303818168721847,1.297313358753783,4.032952127181829,2.1051073963724143,1.1641426854373584,0.20875065320358743,0.6027052545418883,4.049718966165184,4.813725220739489,11.831643073543379,3.0790150148390225,1.136223072422112,1.2262393723075817,3.6910881253022687
33025,718.0,-1.6151142163944314,-2.012841246662866,-2.7864477135196033,-1.3202210750905472,0.8735497501659104,1.0436488689292531,0.5613071730741694,0.5358593783476557,1.149634874096357,-2.307025092775927,0.8441436351776339,-1.4696589488729295,2.566290971482779,-1.697382087668938
33025,719.0,1.1786556006446354,1.9774679438933838,0.6922092518216516,0.8463762997041293,0.7189871393634881,0.7016520503563655,2.5964553934371963,2.3636151376915215,-3.808724062865455,-4.6673630109741175,-1.9165988298321324,1.616786180065695,-1.9069227672570506,2.3931841222360752
33025,720.0,-1.7281621998826182,-0.06868352121086474,0.06793157428961649,-0.22761161157930587,-2.8429978708125816,-2.4276576801751446,-6.219471071791123,-9.041296959001489,0.09433519982862393,2.8639305675151796,0.3481686022803494,0.678883588985034,-2.201791382535916,-4.146148753074133
33025,721.0,1.0021582889093672,-1.5056570202183117,1.8564498836677288,0.9180755902068682,1.555281951632491,0.9763220614360328,3.66781652719051,5.318023100854571,3.5948384873952826,0.2899785559653445,-3.2910705541968994,-1.6424351133088138,-0.4106762403768194,3.4536544201049466
33025,722.0,-0.9174172263766138,1.5936125819618923,-5.215100878727821,-3.8633510907318005,-1.0309098279256048,-0.18843524759410357,-0.37758636180170413,-1.1604229237932095,-6.337188740632168,-1.7264197208476944,6.65108819974564,-3.898716861444157,5.645848862035191,-5.940113679144332
33025,723.0,0.7992412748196784,-2.5896074133951146,1.6464505889598975,1.6601952300257317,1.731932603888506,1.058974919757592,1.978869613513556,5.802027863769176,5.226790120239993,1.9030421166726619,-4.252694641299943,3.54515757346239,-3.758207092547959,4.687947790617905
33025,724.0,0.7830201100318526,2.2338657265054387,4.835050734851308,4.4581474015933935,-0.9320823819034878,-0.9601640029125349,-4.7759277233520585,-6.059700389327304,1.3434906981851462,0.3447858029031927,0.89635941694916,5.623056788525528,1.3343712683019184,4.180534708565794
33025,725.0,0.560956277848085,1.4423523999399244,-2.6337302392988775,-3.2859168837995867,0.5189912094641862,0.7273370904619085,5.40277662738789,2.207488633280196,-3.1595723484628166,0.32495264426092163,2.2656573508009252,-1.5795931439148667,-0.4357656430776373,-2.789354297495052
33025,726.0,-2.3348075079631414,-4.417128617748723,-3.405127945792671,-2.3629414243838482,-1.5823680564021778,-2.5705829208749336,-4.096831775991394,-1.9247204538183453,-2.6353335942992047,-4.325545813807121,-3.7310572683917584,-6.788480908868131,-1.8797770296683574,-4.437973451364936
33025,727.0,2.8883609360285725,4.491681837817499,4.671324475230801,4.320594782844413,0.7598234844782255,3.382743460831872,3.5256607643967826,4.6966230755761735,7.697305393405138,6.167398026498649,2.8194089696008398,-3.9732466216534696,3.686098231817237,4.332671703876198
33025,728.0,-2.697573385540256,-1.0213416561338668,-1.4789124368414797,-1.509174322873566,-0.41324186281635633,-2.400360739555346,-4.387903997010259,-4.663089196376077,-5.489519136352861,-3.124100267322195,-0.8994479349945479,16.51989332063031,-2.9460856328982956,0.6625773690322241
33025,729.0,0.09900215145211888,-3.472422598521181,-2.7299682575033266,-2.29580062820094,1.4277105319227736,1.3256890187055426,2.1257401841925514,-0.3450770320722647,-3.002908690246869,-3.6271155021712715,-5.568784414750979,-6.01380211559654,-3.4378275526135695,-4.813137102668886
33025,730.0,2.445324288988594,4.159656419317471,7.140395611370256,3.2623792126613367,-1.728022863956845,1.386478056759664,2.1018117421806757,3.861500876753876,8.32310122327723,7.477451472976732,11.893513709279631,-3.948706852911524,8.42014736461196,7.797875785472748
33025,731.0,-2.679853725218436,-1.6023321789863836,-10.20265060104186,-1.8430617914302125,-0.6623750151317189,-4.597898645978201,-3.0154031030504918,-3.2854890434156943,-5.070371221868765,-4.326827467421005,-8.883739719732219,-3.50261095218519,-3.760180270744197,-9.425584655668995
33025,732.0,-0.04896822613304863,-3.8131833926204415,-1.8765939298071679,-3.9141156650473334,-0.32274666194682666,2.6403167269506227,0.9526929667578763,-0.1394782826883656,-1.5987048726039852,-2.896124632739202,-8.322681961591872,-4.940052045353454,-8.611494901731646,-1.930474447101048
33025,733.0,2.918497933929963,6.6059975277734395,15.732705792214215,9.025141571340534,2.542802718584344,-0.15816401287193216,-0.37341127768003446,1.897078506170402,1.8987457969514878,4.056504832062515,16.6499624405752,21.099252179436583,10.62989793174945,11.438294907916248
33025,734.0,0.8861155969623269,-2.9248149924082405,-4.62017621267449,-5.2669109459264405,-0.23077071298591179,2.806601436398722,4.4749539602694774,3.0747032785961323,4.334138970334568,2.8497471630225384,0.6591203291536338,-1.4491884217959061,4.022440819231978,5.325614187417251
33025,735.0,-6.007714682949995,0.9921944286524251,-6.171781220800632,3.714112590788883,-0.8814280114556716,-5.673217442096867,-8.382493401183922,-11.170020367487098,-9.49589344783275,-7.65431142904659,-14.572004530324833,-24.641042229192706,-13.805510830029256,-21.430974828794533
33025,736.0,5.556829428530264,-2.44503739044632,0.07005165913969336,-7.947697437462789,-1.295493499621287,5.08851396434947,7.78560931155252,13.946413789352732,11.461506984284927,9.006961769015874,14.03727865771073,13.8224561417953,13.0308723573974,17.947370677146086
33025,737.0,-6.307738660678183,-2.542482484920953,-2.98572359175402,3.014273469875551,4.584974274393449,-1.4607423122275982,-6.09859022755499,-12.35452462492168,-13.855421918488766,-11.114195262436215,-15.219185873359152,-1.3021355127891958,-11.980426163934851,-17.851009492303092
33025,738.0,8.780375741375504,10.670346462066398,15.729608136881858,8.969998889212661,-5.549546434472251,-3.3662460046644185,3.5981287493032212,9.360859909658625,11.549375798016843,7.947744155535197,8.058481795238862,11.848563584358345,5.634222692335495,20.241185394241036
33025,739.0,-6.009733826683327,-9.797019165250333,-13.551433455586757,-11.029118462636504,2.7874355744222044,7.0676290671549395,4.401111611046517,2.138349440444877,4.101614023948411,2.579013206697759,8.092706218236291,-12.23257875815144,4.780218625498804,-7.798862489970919
33025,740.0,-0.863853311626471,4.622868859794931,1.1017198299792454,4.58726080236665,1.805244539769113,-3.6657411754152136,-10.1803758768269,-13.322183071649938,-14.122990788163317,-5.116636494641998,-4.559708623275377,-1.5916790066504625,-4.82074971645012,-8.330585899430385
33025,741.0,1.9391184320055572,-3.2774108347248934,-0.1084682456004522,-2.8219658397972402,-4.9951137443840175,-5.045157241598261,1.7213769813273387,7.9288830110662545,5.043218364161579,-1.8070702819304074,-10.12748126914532,1.8993310819096152,-1.9733691693131092,7.245553287560945
33025,742.0,4.972775054034436,2.5516069108275623,8.751345205428734,3.83291126530402,2.4436910761978297,5.972563399111124,9.999541489060235,4.816529553048564,1.289207586685734,1.602446443852088,9.495655225179096,9.896119264623348,3.8817577394787683,7.208105867696222
33025,743.0,-9.935780468658955,-4.115199365339734,-12.883490179967506,-4.99580355388785,3.4769984004850727,3.3436470562769927,-6.331648378059878,-2.7839086441593253,8.432072109447791,7.569304251100746,2.497142161834656,-5.418465990862234,1.5590741640568382,-10.148750016985002
33025,744.0,5.965372089915405,7.898066028329755,8.235010600778555,6.834550940101632,-1.1629951082188192,-8.376522280714742,-6.531349573987516,-8.145416099926045,-14.264209873800429,-10.487663260355042,-9.01862788499188,-16.335354042801658,-6.762999017384004,-2.717421586324985
33025,745.0,-0.5851982476587239,-5.154765092663247,-1.6220306134118552,-3.21103521029454,-4.0077062721917684,1.7678744329970613,4.4569886739908675,1.8055610207433084,-3.994515174079268,-2.8916451696319108,-1.2673719144188915,12.835233794133838,-2.72761103505718,3.495600020931178
33025,746.0,-0.142560788227879,-2.4362367824028297,-2.1468722521842807,-4.06143684767417,1.039795143268723,6.709442984537681,10.420820253211456,15.225855382431131,24.28275852824971,16.45066988615502,16.21136318728748,14.480235586546012,17.933098185098057,9.97131999408887
33025,747.0,2.826664815123504,7.117626718547573,5.449388730096761,7.164004635266139,6.491485745681306,-3.847137294877651,-8.824369733406307,-12.847735313461879,-14.417404057797185,-7.3732987698230446,-8.409401363693426,-13.900814655391091,-9.884912400559092,-5.560726489442743
33025,748.0,-5.6153275298876935,-5.636785132995492,-5.654821726712729,-4.035816472222962,-7.317764550334459,-2.6131166679811173,-2.317266420286675,-2.4848770749473132,-7.062885547290051,-7.742389884430242,-7.944144096349369,-3.980666110294038,-7.078764183632902,-8.861332501094555
33025,749.0,0.2663597664934514,0.9522907283094177,-1.146768271012153,0.2403387414471574,-0.6832521522973671,-0.05806161716099112,-0.28644683520953507,-1.0095736061348646,3.7629237475630006,-0.07419804204949898,-3.888178911632707,-3.6708274061933963,-2.3384953415434637,1.2551917383116837
33025,750.0,3.0306226045421454,-1.438781081484727,3.4221900326804544,-2.7588764776287427,5.126792029843251,3.030510261407315,5.4326582657080635,12.306935512736008,10.553928648135035,12.297970457082315,19.388693073702203,15.95927000908603,17.580506998936603,10.548879886989635
33025,751.0,5.633387020270536,5.617825674538224,7.429865812129048,7.883773269694554,-4.848830978382715,-1.3882605978591478,0.6600922310801067,-2.0919068265559773,-0.1452190251842005,1.8192617323668614,5.129252311842816,4.243292498629341,1.0243364235703396,4.999696689429946
33025,752.0,-10.089575628075448,-3.866139012219943,-14.692018514612293,-7.072716237310313,3.7287060022740377,0.20574552844790617,-5.808143814687828,-12.013536287790554,-18.61979428633671,-22.113880098248703,-35.95146513488889,-26.54411868164471,-28.768561782018644,-23.30505514476994
33025,753.0,1.7320068268404114,1.0769708186313345,8.178763802851662,4.6818641392166285,2.500969028638007,0.3375871039478646,-0.6497024978762873,5.745924122013896,12.746475425806803,15.293996934820587,22.862895849041333,9.006927099710204,19.54745718175419,11.42882590901381
33025,754.0,5.758256285319099,-2.2475200418863324,1.9421712629529893,-4.7992341267278995,-8.06991081750661,-1.5503856870563162,6.844283044027435,8.303815571363575,6.822819521981582,8.86029149674123,14.7523979903827,23.51520771890057,12.883136953604083,13.509718887084105
33025,755.0,-1.4231525951187969,3.518669584560161,-1.5508221634867887,4.741022024987316,4.86903023186073,1.6864810747420726,-3.5616449148945257,-9.551191818094619,-11.412731810799837,-15.071886010666013,-21.745402348151032,-19.872612847496605,-19.927447284150293,-13.110255696018505
33025,756.0,-7.57146977130747,-2.629537400142464,-7.574779401454656,-2.4742682990868303,0.3406506494376984,-1.8668643820212196,-6.126512673819153,-5.422000340465804,-4.812811853347689,-3.5065140127134136,-7.038940043415408,-12.949650549733466,-4.562196147984885,-11.813515130305746
33025,757.0,6.977177328033196,0.24138528836922646,8.280063287378425,-0.19722498131215715,0.787688807370241,2.5147089194699177,8.515896452111818,16.06817754709259,17.24191208824353,15.10793196810883,18.6342808042903,19.294898342834507,16.219384703949277,18.58218900271866
33025,758.0,0.9924319665707664,-0.7417779535218614,1.0089926691543951,0.1171178617732167,-3.0124003166740323,-0.11889355756164832,1.255661470696971,-7.559558765858423,-7.027643346457815,-3.610678700408201,1.7334573291868942,8.504030668470662,-0.4524590662142707,-0.07441177686534317
33025,759.0,-1.754613657326324,4.049933147125618,-3.0257522368409866,3.4550442960312218,-0.932634315308686,-3.7169770328040457,-8.427941108987689,-3.1327811844841946,-6.785003726418331,-6.05669233118493,-9.781692015792402,-19.158217909158118,-6.026020552356126,-5.766969401604165
33025,760.0,-4.188715272444597,-3.9688690511713354,-3.7917869404326616,-3.6377459096245346,5.375414923081397,4.035964282379986,2.9776145722043452,-0.7072852968618548,2.7954988973013393,-2.0071485114129644,-8.60767818604203,-0.7592762509103714,-7.261755124667584,-6.589724396449171
33025,761.0,2.7903880986053267,-3.1888194012866435,3.8527444446834664,-3.1670185463046785,-6.0630115291945295,-2.949360926686346,2.875941065496473,6.133303451836671,4.642885888097197,8.503093131482885,14.283390000764047,13.46728818228793,9.503713388888261,7.308559986169328
33025,762.0,3.0385658230975565,6.76842481581923,1.5873841510405562,3.0541292983332085,0.9271869396298023,1.529072414071134,1.391619741450711,-0.4364152255668152,-0.49252287210971346,-0.08903358372815262,4.232253129863171,-4.834173967796545,4.785141331810237,5.349634970252868
33025,763.0,-2.9619935743115136,-1.038513436356883,-2.3170670293886886,4.4040371392482385,4.438150089212453,0.6788199039640546,-3.651931138314108,-5.070743432887362,-5.260925968211424,-8.657600196520818,-14.278571887863652,-6.030001208767011,-11.022057025707166,-9.11300134875939
33025,764.0,-0.7090262224841339,-1.9021894283263379,-0.5455656158239215,-4.317734921984062,-2.2771134998991265,-1.0691753732617002,-2.8806234547158844,0.9034284329141578,1.960712036182251,3.6695541690784346,0.41891006436206624,5.392239695943665,-0.35409549645384786,-0.7721494701262017
33025,765.0,2.4721225529160265,-0.07214950607770021,2.844370217395401,-1.4486970092782414,-2.2500261997974,-0.06340153017993444,7.980784704602126,8.282032102981965,7.873304085037784,8.319003799041027,16.452375544059173,2.2372516309913166,11.15128311241427,10.024117140959554
33025,766.0,-1.6401320270256257,-0.46577794769253344,-3.3183828617656133,1.8619871112963366,4.4284194262817,2.689832589450784,-3.085914345074837,-7.308142815672532,-9.757863594177032,-9.948568601664004,-11.806439510865701,-8.015200477078423,-6.425705686710064,-7.778461017487658
33025,767.0,0.5763777498747231,1.9901335757966052,2.274428173536645,-0.4595306816442495,-2.9658727688139663,-1.796819604816939,-0.8097901751444603,-1.3523582189090213,0.496891734576689,1.0016299833197415,-4.126112352144087,5.37534418840654,-3.3795427804125815,1.168017920296382
33025,768.0,-0.5225803318606452,-0.9990874553207618,-3.213251854766,-0.7590208118963275,-0.06738668284130966,-3.505526008703594,-4.593401771073079,0.20317462329301605,2.0319466732908325,1.4589548676377753,2.5012432395685664,-2.2262829070156194,1.0759552901147735,-2.8380259579714924
33025,769.0,1.71036052823451,0.34086704038665516,5.447776378339501,4.582613860118908,1.0957724933710509,3.6907372894443924,6.511840888674804,5.731714792753959,4.649517541491019,3.8805695649920082,11.609065695296763,6.32777712606126,7.023201049236004,8.476937293225973
33025,770.0,-1.8767839203913006,-2.3502225421829444,-4.3378334817048305,-5.442753932184743,-3.3227350094710246,0.10166988264057153,1.0955341671512926,-1.9327871507003458,-3.7336889337234744,-3.2735459115093057,-10.974779507813977,-4.715383461926187,-4.392727427692002,-5.7968004945872025
33025,771.0,1.1857546216871953,5.322061529509426,1.449057512680973,3.533577769009014,3.9705806557282237,-1.989417230216688,-5.917147028048621,-8.900797739979946,-8.167572137158494,-5.542012923654131,-3.8502078025615667,-7.243198596380356,-5.350127850190617,-2.24515812038711
33025,772.0,-0.8063089966570978,-1.462327659005993,0.4279437731934408,-0.10028177429229501,0.4761798650543625,1.622783564485701,1.7722510248059287,12.440352041122587,13.596869526866655,9.597731271018386,10.336552447498981,10.195379753853512,7.608356743012337,4.374082004695218
33025,773.0,-0.6374127054090089,-6.004291711509456,-2.1021954935058424,-2.800596174012874,-4.087948049465787,-0.5199232648685417,2.086573566451218,-5.938360776294836,-4.520928385153571,-3.806786644986321,-3.9019646263460466,-0.6759476261514585,-2.244602479126197,-2.0355255362331626
33025,774.0,-0.15081301131800018,2.2282151357282913,-0.14770066130643045,-1.7102732358810862,4.655367103241254,1.9657772148155956,0.15540166306630354,-0.9805260109140619,-5.380764227666052,-5.447380041362422,-4.989015312429629,-1.6314347223441175,-2.8165334875186403,-2.694113017465469
33025,775.0,4.2088265496106665,7.853804281270669,7.023916175523883,9.03080056977159,-2.502835164684708,-3.0471757689512984,-2.9740406631047343,2.569181823748938,6.751811857653582,9.31692959688165,11.08855294442817,0.7227670334258391,5.326827212386146,10.1603620119098
33025,776.0,-5.340848882107821,-9.57176885213486,-8.99410370139615,-8.722557630065502,-1.4264897377831218,1.0212429167140087,1.2163995243230943,-2.799861422414942,-2.5527855285118797,-5.805500876841702,-14.265887960992142,-9.84808747618979,-6.4789849801767225,-12.974614409174745
33025,777.0,1.3369218229432285,2.190443222830371,2.873751708858819,1.4214503289524814,2.7986285574633385,0.3930125831479252,0.6497744597699189,2.0877713906885766,-1.6973305451941982,0.7493273641947766,9.53648846875625,14.468032370524927,5.271604328177876,7.3767605432238454
33025,778.0,2.057794189543902,2.6512285539144216,2.227932778406995,3.6195942766205818,-2.367868598266952,-0.7470494606496274,-1.823820071266816,-0.06810802257488291,2.7246091812461124,1.8053378799315603,1.0333368862392724,-5.5309270997649485,-0.40724982918161956,0.6332003476870334
33025,779.0,-2.1334179717740724,-1.3336830417153784,-2.4269102460648853,-3.3878260063535386,1.3543675021435995,1.1090045333563658,3.7513836258751247,0.3987289836299226,0.4795963364572522,-0.847408744007268,-5.740729766488247,-3.0176881178820345,-3.3857528750733827,-4.175513208859822
33025,780.0,0.4025274691140872,0.08433028481319482,1.4791780525956284,1.5726991703907984,1.327512359714131,-0.4044103464755757,-2.7577753378833307,-1.6024503327892923,-3.2774054318581634,-0.919429050815797,3.5662875948218122,3.2601247164091873,2.2665747405177967,0.4866518151176251
33025,781.0,2.11679995561056,1.3158692052367726,0.29594868375000516,0.0777634709851931,-2.541636023245001,0.4542736260404965,1.8129560546851344,3.4337163957652628,2.564700218380345,2.9553534613924164,1.584226409009915,3.522295603170061,1.8886092365497156,6.313183238074952
33025,782.0,-2.4882354255904744,-1.254819179322034,-0.89730163111469,1.5390977713254408,2.86340433816801,0.11367841049189664,-1.13384530532392,-4.536111668025679,-0.027301767115567088,-2.808802068854906,-3.15637404181847,-8.33532125301091,-3.030042626244171,-5.539022541130347
33025,783.0,1.5698329327401268,-0.2013640657355218,0.5101417661696992,-3.1677427098311917,-2.1640442601329646,-0.2532617749737689,0.9600464071040165,4.556483445505453,0.6824164257795999,-0.09310017048483843,1.5552525332370237,2.9337831116594586,2.203876094106377,-0.09478943377815341
