AF3,F7,F3,F5,T7,P7,O1,O2,P8,T8,FC6,F4,F8,AF4,ID_all_events,EventId
0.47259405158016854,0.29456461003523415,0.2477052899688874,0.22877059860983273,0.3440538349695519,0.3747302159197403,0.47364345378565265,0.34893421571068917,0.37410237535814606,0.3159466879669406,0.70925471206347,0.39354987563360666,0.37529460036257856,0.3765019002707577,1.0,left
0.47238529595492107,0.30330657232276526,0.2482082816600102,0.22928281870623446,0.36756777621949155,0.38984840679587407,0.479875070959932,0.35333624831401167,0.3824798255230286,0.31404497782460794,0.7142571355410232,0.3950753045671256,0.3736443894174961,0.3773917583045021,2.0,left
0.4746863884958117,0.297034912841017,0.2491303000694105,0.22877059860983273,0.3908104839228823,0.3863390287463986,0.4705271507040605,0.35356832901447,0.3898992016809313,0.3186637123596334,0.7157579006892627,0.3826535989914248,0.376944811307661,0.3956389328992218,3.0,left
0.4824270789509768,0.29874595762059286,0.24883690155201466,0.23036426858391013,0.3859457790244676,0.3604212487544789,0.4578028233646583,0.3623723942212953,0.3994735606670714,0.3447429044122359,0.7237618544632944,0.3981261624341643,0.39486100249860456,0.40921223410726704,4.0,left
0.4943516464603155,0.31546917658503304,0.2484178748337702,0.23320998395655534,0.38810844195126926,0.3585313463651598,0.46533397156074496,0.368860505821182,0.39827665184581473,0.3528929429274523,0.728664442859257,0.42994106599103343,0.4042900097593538,0.42278553531531227,5.0,left
0.48744757206052913,0.31147818635043745,0.2475795021387961,0.23141721361913858,0.3897296671341959,0.36663078114255576,0.4697478276865388,0.3593606397308182,0.3853522243770753,0.32463992442825074,0.7170586146244307,0.42057104822202795,0.3958037236587444,0.4296840537864348,6.0,left
0.4702929590392779,0.2877233260857608,0.24728610362140047,0.22859989470549824,0.34648670209347365,0.35637153136588573,0.46844928565363464,0.3674697864901395,0.39085727568791206,0.3156750889940003,0.7104552098670789,0.39420303807676405,0.38637381856841024,0.4136623717599166,7.0,left
0.47259405158016854,0.287532968735146,0.24833390986089188,0.22956743359687148,0.32297276084353577,0.35097225092709294,0.4861076771229138,0.3938828645464687,0.4121591533215341,0.340668402485953,0.7204602473471304,0.40771362437105996,0.39038173024351863,0.3994212532846424,8.0,left
0.4769874810367023,0.30235623315381055,0.2462802798683319,0.23010815853569822,0.34648670209347365,0.3601513361445221,0.5016882035417671,0.3941149452471082,0.4147918057781368,0.3474599288049287,0.7265633335467019,0.42623621574118076,0.3993393769241065,0.4058739952550505,9.0,left
0.483054939381109,0.30406655414110517,0.24674128907303183,0.2297097410421789,0.36351316923803445,0.36879008202262575,0.5011689845263865,0.38484671863918507,0.40545719318962714,0.3403962861814751,0.7247624915787769,0.41773763452288026,0.40263979881427137,0.4201159612140799,10.0,left
0.49205055391942487,0.30729756255736085,0.2522318959306715,0.23144561007814346,0.37270319998984647,0.3839093011371695,0.5053237256387382,0.39481030491262903,0.40521744679199756,0.34800312675080924,0.7234617776436871,0.42797991878207675,0.40381864917937627,0.4294611655361642,11.0,left
0.49246886194719597,0.31128855279195644,0.25327970217016293,0.23301077520979574,0.39162161118905914,0.3955181139638295,0.5110361237976369,0.3941149452471082,0.4040214495540946,0.35398037348228684,0.7245622498407602,0.4460667918769303,0.4042900097593538,0.42679159143493184,12.0,left
0.48974946137853426,0.3048272597517272,0.24992669027796155,0.23284007130546114,0.38405383496960255,0.3830990491878854,0.4990911194757581,0.38368896244481476,0.40713268322260365,0.3463735329129527,0.7314657314177189,0.43647850000037813,0.40240456743907504,0.4194481439468509,13.0,left
0.48953990897617317,0.3055872415700662,0.2492979107567148,0.23232785120905952,0.36270307132107504,0.3790498459184981,0.49675413941189017,0.3971266997374041,0.42221118193603946,0.3507201511435021,0.7378688944369758,0.44236194162707765,0.4130124250649292,0.4214507482647827,14.0,left
0.4966527390012061,0.3082479017264639,0.25047150482629754,0.2323562476680644,0.37189207272366964,0.38795953264496497,0.510516904782258,0.41960146537349186,0.43561510219985244,0.37544134833118825,0.7377690593553856,0.47679198477554774,0.43139997683603415,0.4414776389269912,15.0,left
0.5018827845131195,0.3000762876987917,0.25076490334369317,0.23232785120905952,0.3694597202743548,0.37634969157989673,0.5061020596677617,0.41079740016666566,0.4327427033458058,0.37951688492012003,0.7370686895845338,0.4833294187850621,0.43281495640592027,0.4510457314993461,16.0,left
0.49937293634698143,0.30349692967352837,0.25147748820857574,0.2321001376198747,0.35918938740846684,0.36690120787171665,0.49130085626643183,0.38623743797022847,0.4135948969568801,0.35805487540856973,0.7379691105685349,0.4591408299561319,0.4283356841506505,0.4383622883250444,17.0,left
0.5,0.3206001395472118,0.2522318959306715,0.23238475251051172,0.3770274964938132,0.3809397483078172,0.49493637836340465,0.38670071693529184,0.4049786119777208,0.3507201511435021,0.7392696339786795,0.4502065304625633,0.4337576775660601,0.43057391182017835,18.0,left
0.49811721548671706,0.32478148713242216,0.25130987752127143,0.2322424450651821,0.3813517929979895,0.38984840679587407,0.5045444026212165,0.40129797529449984,0.4155101333874871,0.3577837937669539,0.7387693154209773,0.4552185355383891,0.4368219702512599,0.431908698870882,19.0,left
0.49539781491821877,0.31071820453209753,0.2495075039304746,0.23076268607742945,0.35513529510161845,0.3793192444092508,0.5014280995398268,0.39249302765164007,0.4121591533215341,0.34990483689314367,0.732666419746351,0.4417079492442628,0.4295145345157545,0.4279034902351908,20.0,left
0.4949795068904477,0.3012162604262274,0.2482082816600102,0.2294536309939892,0.35135140699189016,0.380399923087694,0.497792577442854,0.3769692113624865,0.4095265008649305,0.3463735329129527,0.7264633079401661,0.4216599289406231,0.4250352622604847,0.415887864328119,21.0,left
0.49225930954467145,0.30254659050442534,0.24896268938210597,0.22905521350046987,0.3645950153759401,0.3830990491878854,0.500389661508863,0.38971247142558774,0.43106721331282927,0.35941338760481045,0.7289645196789425,0.4240576243643339,0.43163610604081537,0.4080994878232529,22.0,left
0.4943516464603155,0.3036865632320094,0.24879507869480166,0.22928281870623446,0.348648850345457,0.36825025680250256,0.4920801792839553,0.3959689435430338,0.4305886321009229,0.3561531652662371,0.7293646221051637,0.42885135533278174,0.4337576775660601,0.40453920820434774,23.0,left
0.48953990897617317,0.29893559117907387,0.2464478905556362,0.22874220215082786,0.35162161118901025,0.36879008202262575,0.48299137404152415,0.3642263925172209,0.39923381426944093,0.34202691468219193,0.7210605915114465,0.41207246700372746,0.4170203367400367,0.39274562306379046,24.0,left
0.4824270789509768,0.29779561845148983,0.247202298277732,0.22868530084937566,0.38054066573181267,0.38822893113571766,0.4918200752818125,0.3505561333061564,0.3889420392573051,0.34202691468219193,0.7188594565923552,0.4074961802031698,0.4139551462250681,0.37917232185574523,25.0,left
0.48159046289559804,0.30672721429750194,0.2508906911737845,0.2301365549947031,0.37648605875014596,0.38525937830636536,0.5006487765223033,0.37905440792283684,0.4066541020106973,0.3515354653938605,0.7242621730210748,0.426671934016448,0.4292784053107894,0.38473520579240983,26.0,left
0.48033474203533366,0.3093878744538987,0.2491303000694105,0.2302219611385805,0.3586484643396197,0.36798085831174987,0.4845490310878686,0.38554207830470677,0.4085684268579506,0.3526218612858347,0.7247624915787769,0.43647850000037813,0.4205559900053988,0.398531395250898,27.0,left
0.48138091049323695,0.2998859303480286,0.24598688135093605,0.22905521350046987,0.35189181538633996,0.37095041114110394,0.4674108476226726,0.36075091784384483,0.3951654181774913,0.35017695319761977,0.7231615102990565,0.41882734518096143,0.40735520027432237,0.38807259716087117,28.0,left
0.4782432018969667,0.3002659212572727,0.24728610362140047,0.22916901610335216,0.35486509090450014,0.3830990491878854,0.4837706970590476,0.3575070826529094,0.39564399938921113,0.35234974498157,0.7257629381693143,0.3922418908679779,0.4212634797903414,0.3724966916350674,29.0,left
0.4767787254114557,0.3086278926355597,0.24892070689568335,0.22973813750118377,0.3743244251727713,0.38768910591580585,0.5024665375707889,0.3700182620155532,0.4028245407330244,0.35017695319761977,0.7264633079401661,0.39529274873501574,0.43116474546083783,0.37872739283896006,30.0,left
0.48430986346425975,0.3099582227137576,0.2490884772121973,0.22988044494651338,0.39270242797774735,0.3855287767971163,0.493637836330298,0.3755793744674767,0.40186646672604365,0.35017695319761977,0.7280640986950191,0.4173019162474425,0.42338505131540227,0.3931905520807497,31.0,left
0.4910043854616841,0.3082479017264639,0.24887888403847014,0.2303357637414628,0.3908104839228823,0.3868788539665218,0.4918200752818125,0.38415224140987814,0.40521744679199756,0.3577837937669539,0.734467261714276,0.4210067664972952,0.42597798342062454,0.39897632426768403,32.0,left
0.4910043854616841,0.3052072506608221,0.24875309620837882,0.2300796536932731,0.3864861874189156,0.39524871547307683,0.5092183627491513,0.389481273161163,0.41168057210962683,0.3618582956932368,0.7332665733856438,0.41272562944688485,0.4262141126255896,0.397863577983669,33.0,left
0.4824270789509768,0.2998859303480286,0.24892070689568335,0.22885600475371015,0.37675677762208437,0.38660945547577086,0.5053237256387382,0.3846155203747603,0.4083295920436738,0.3596844692464263,0.727463754530703,0.4098930456873937,0.42267756153045966,0.4009789285856158,34.0,left
0.47866150992457523,0.29931558208816966,0.24866929086471035,0.2277461584170295,0.3710809454574928,0.37230048831050944,0.48818455318483966,0.3825303238144109,0.4126377345332539,0.3564252815705018,0.7277638313503885,0.4149050507632186,0.42998589509573293,0.39919921251812696,35.0,left
0.48138091049323695,0.30387692058262417,0.24774727245531025,0.2274331470673876,0.38405383496960255,0.3790498459184981,0.49493637836340465,0.3850787993398237,0.42292950954538977,0.3564252815705018,0.7284642011212403,0.4362602258930002,0.4200846294252374,0.38985316071228837,36.0,left
0.48096260246546585,0.31508918567593724,0.24791488314261456,0.2281160710681015,0.37081125593498143,0.3855287767971163,0.5014280995398268,0.38739607660081266,0.42652023600897326,0.3632168078894775,0.725962989382464,0.4652425456902085,0.401225717074154,0.39029808972907354,37.0,left
0.48451861908950633,0.31946016681962863,0.24959130927411044,0.22840068595873853,0.3535135552438735,0.3787794191891276,0.49727335842727083,0.3920297486865767,0.4253233271877166,0.3670202281741446,0.7267633847598511,0.47701025888309534,0.40641158128459853,0.39764153721715445,38.0,left
0.4882849848930224,0.30729756255736085,0.2484178748337702,0.22803077330766652,0.39216201958350894,0.39092908547431904,0.506362163669702,0.40129797529449984,0.4217326007243196,0.3575116774624778,0.7268634103663869,0.48550884010139583,0.41867054768511913,0.39675083169948167,39.0,left
0.4884937405182699,0.29912594852968866,0.24619647452469606,0.22825837851343111,0.41432391049821327,0.401727646351695,0.5172687299606187,0.40940668083562315,0.4214937659100437,0.35425145512390444,0.7242621730210748,0.5025060025379977,0.41961326884525896,0.39608386191618106,40.0,left
0.48326369500635646,0.3053968842193031,0.24892070689568335,0.22726233477963276,0.38837813147378064,0.3849889515772045,0.5011689845263865,0.40639492634532637,0.4281957260419498,0.3615861793887607,0.727163677711018,0.5040314314715166,0.42314892211062105,0.4009789285856158,41.0,left
0.4738497724404329,0.2995059394389328,0.24774727245531025,0.22279455297390527,0.3775679048882612,0.3817500002570995,0.48480913509001144,0.39434702594756565,0.4190999482677169,0.3566963632121194,0.7266633591533154,0.48441912944314414,0.42079211921018,0.3867378101103416,42.0,left
0.4738497724404329,0.28525302328012714,0.24267569231594788,0.21878198157970696,0.37513555243894814,0.3868788539665218,0.4837706970590476,0.3769692113624865,0.3934899281445148,0.3428411942699032,0.7174587170506515,0.46742196700654226,0.40311115939443276,0.3635955688460131,43.0,left
0.479498125979954,0.29342463730779933,0.2457772881772089,0.21866817897682467,0.3667566489533147,0.37041058592119214,0.473902568799093,0.36468967148228426,0.38559105919135206,0.34202691468219193,0.7167583472797996,0.47439511929132383,0.3969825740238493,0.3696042292833912,44.0,left
0.4805442944378573,0.2998859303480286,0.2495075039304746,0.21918039907322628,0.36810818461394135,0.3636612283132017,0.4715655887350243,0.3700182620155532,0.39468683696558493,0.3518065470354763,0.7226613822662213,0.4846365736110343,0.40735520027432237,0.3867378101103416,45.0,left
0.47866150992457523,0.28221201031841936,0.24519049114241764,0.21781444268833372,0.35432416783544163,0.37203006158113894,0.48143371699497894,0.38484671863918507,0.4112010793145533,0.35370825717781074,0.7229614590859068,0.4702545507662039,0.4118335746998243,0.3796172508727045,46.0,left
0.47573255695355243,0.2753703644728782,0.24225666559767056,0.2171599151466247,0.35054079440032204,0.3644704520238662,0.47727897588262547,0.38994455212622636,0.4236478371547401,0.34963375525152607,0.7219610124953699,0.45652652030401786,0.4049974995442973,0.3707161280836502,47.0,left
0.4740585280656795,0.2799313410711175,0.24393309172916644,0.2170176618930052,0.3572974433536018,0.35205190136712794,0.46767095162461114,0.37279881824160555,0.4147918057781368,0.35234974498157,0.7197598775762786,0.44998908629467316,0.4009895878691889,0.3749442249697852,48.0,left
0.46485336112484,0.26035710459951744,0.24242427628497487,0.2150540792678558,0.3378375944107219,0.35421171636661164,0.4681901706401943,0.34939749467557224,0.3870268028268846,0.3471888471633111,0.711055554031395,0.43124822081700565,0.39556759445396317,0.36270571081226866,49.0,left
0.4566943626419038,0.24857449124649467,0.240999266184452,0.21371657353370044,0.3335132979065438,0.3604212487544789,0.47026704670212194,0.35704380368802724,0.3779319366358189,0.33822349439752486,0.7080540237348378,0.4116359187888028,0.38991036966335635,0.35558515157463155,50.0,left
0.4698746510115068,0.27290006166709624,0.24343010003804366,0.2152247831721681,0.3581080559451699,0.3620412385338412,0.4715655887350243,0.38623743797022847,0.3980369054483708,0.34447182277062005,0.7115558725890971,0.3974721700513495,0.391795811983636,0.3751671132200549,51.0,left
0.4776153414668345,0.2867729869168061,0.24326248935073913,0.2173591238933843,0.35918938740846684,0.3585313463651598,0.4767597568670423,0.39063991179174806,0.4085684268579506,0.3564252815705018,0.7146574284921896,0.3946387563522018,0.3998116353338519,0.38317753049143644,52.0,left
0.46924679058137464,0.2787913683436827,0.2411668768717563,0.21812750822968585,0.35594590769318657,0.3577216085350816,0.4658531905761256,0.370713621681074,0.40162763191176776,0.3520786633399542,0.719559826363207,0.4107644822380987,0.4021684382342938,0.3671558484649182,53.0,left
0.4715486798995423,0.2801216984218806,0.24200508993748793,0.21818440953113805,0.3778375944107726,0.37203006158113894,0.4614383454616311,0.36955498305067014,0.3994735606670714,0.34854632469690294,0.7186594053792055,0.4244933426397717,0.39863278496893173,0.36248282256199893,54.0,left
0.4801259864100862,0.2892432897224406,0.24506470331232633,0.21852587153149505,0.39162161118905914,0.38957900830512315,0.4868870001404373,0.3883226345307591,0.40713268322260365,0.35941338760481045,0.7161580031154835,0.42122421066518534,0.4040547783841575,0.3736094379190815,55.0,left
0.48326369500635646,0.2886736652548638,0.24602870420814926,0.21869662962753966,0.3856760895019562,0.38849935786508816,0.4970142434138305,0.39040783109110944,0.40737151803688043,0.3610429814428784,0.719559826363207,0.4223139213234379,0.401225717074154,0.3758340830035287,56.0,left
0.47573255695355243,0.2803116938764285,0.24410086204571302,0.21841206892861276,0.37162135385173123,0.36987076070106895,0.47546121483413994,0.3704815409806166,0.3980369054483708,0.35017695319761977,0.7196598519697428,0.42383935025695685,0.38283816530304815,0.3671558484649182,57.0,left
0.4711295750946567,0.27328005257634036,0.2419632670802747,0.21832666278473534,0.35513529510161845,0.35016199897780886,0.45754370835121794,0.36144583629134974,0.3906175292902816,0.34392862482452635,0.7134567401635574,0.41882734518096143,0.3818954441429083,0.3566978978588198,58.0,left
0.47573255695355243,0.27309005712164414,0.241041089041665,0.21807055273654563,0.3613515356606598,0.3552918809258525,0.4637753255256998,0.37789665172846565,0.39923381426944093,0.3455582186625943,0.7123562679664848,0.41621220558936045,0.391795811983636,0.3589225429430938,59.0,left
0.47907981795234633,0.285062665929364,0.24246625877143035,0.21807055273654563,0.3775679048882612,0.37391996397045624,0.47026704670212194,0.38600535726977014,0.4047388655802777,0.34936163894726135,0.7154578238695772,0.4125081852789947,0.3847236076233278,0.37405436693604077,60.0,left
0.48410031106173523,0.2909536107098827,0.24523247362884049,0.21909504712105898,0.37594565035590755,0.3809397483078172,0.47026704670212194,0.3718722603116591,0.3843941503702819,0.3474599288049287,0.7147574540987254,0.42623621574118076,0.3804804645730231,0.3765019002707577,61.0,left
0.47552300455119134,0.2793613547074738,0.24401689707283492,0.21858282702465737,0.36324347971552484,0.38957900830512315,0.47468189181661646,0.36978706375112846,0.377692646029959,0.34392862482452635,0.7147574540987254,0.45848766751297454,0.3927394309735437,0.36693380769840367,62.0,left
0.47238529595492107,0.28202201486387146,0.2428014801460392,0.21770064008545142,0.3648647048984497,0.38525937830636536,0.47546121483413994,0.3908711100561728,0.40808984564623074,0.3613150977471431,0.7202601961340589,0.48550884010139583,0.4002829959140142,0.3691584527826768,63.0,left
0.4882849848930224,0.30330657232276526,0.24711849293409616,0.22011954150557245,0.38054066573181267,0.3609610739746021,0.46689162860708944,0.40245573148887015,0.42292950954538977,0.38766692343554787,0.7289645196789425,0.5057743045729257,0.4040547783841575,0.3838453477586654,64.0,left
0.48682050840751145,0.3091982408954177,0.24892070689568335,0.22194081668541432,0.394324682510101,0.3552918809258525,0.45338896723886446,0.3880905538301205,0.40162763191176776,0.3787015706697616,0.7311654640730882,0.4961860126963735,0.40735520027432237,0.3798392916392199,65.0,left
0.48138091049323695,0.2974156275423949,0.2455258721462361,0.2195788165667456,0.3786487216769494,0.3658205291932717,0.44741646507782473,0.36955498305067014,0.38295840673474846,0.3507201511435021,0.722261089315055,0.4358245076175633,0.3950962338738009,0.3566978978588198,66.0,left
0.4884937405182699,0.2884833079041007,0.24393309172916644,0.21789979464050102,0.3459457790244169,0.3582614337552048,0.4453386000273971,0.3681651461556603,0.37888955485102915,0.3461014166084766,0.7172586658375018,0.3974721700513495,0.38142408356274693,0.353582547256873,67.0,left
0.48430986346425975,0.2787913683436827,0.24317868400707066,0.21824131083256815,0.3491892587399068,0.34476271853922746,0.4437809429808519,0.3769692113624865,0.3784105178477253,0.35044803483923737,0.7219610124953699,0.4186099010130713,0.3807165937778043,0.370271199066865,68.0,left
0.4736402200379084,0.274990373563635,0.2417116914200923,0.2173022225919321,0.36783746574200116,0.3604212487544789,0.45416730126768545,0.37905440792283684,0.3851124779796322,0.34881844100116766,0.725962989382464,0.42296791370625186,0.3811879543579657,0.37405436693604077,69.0,left
0.47217574355239744,0.2791713592527776,0.2419212845938521,0.21693225574912778,0.36351316923803445,0.3830990491878854,0.47130647372158396,0.37974976758835766,0.39995214187879125,0.35017695319761977,0.7252626196116121,0.39246016497535496,0.37340826021253104,0.3631506398292279,70.0,left
0.4711295750946567,0.2753703644728782,0.24217286025403473,0.21787134398978603,0.36270307132107504,0.3755404678690226,0.4689694936577178,0.378359930693529,0.405935774401347,0.35805487540856973,0.7230614846924426,0.38679416751671525,0.36704354563716546,0.35625296884186053,71.0,left
0.4679918664983873,0.27746103826548385,0.24238229379855225,0.21778599203761873,0.3824326097866777,0.359071171585283,0.4494933411397506,0.3700182620155532,0.40330312194474427,0.3735396381888556,0.727463754530703,0.4168661979721753,0.3818954441429083,0.3609259947447807,72.0,left
0.475941312578799,0.295894940113433,0.24531627897250896,0.21858282702465737,0.394324682510101,0.37149023636122713,0.4528697482232831,0.37789665172846565,0.41503064059241357,0.3890244009691397,0.7373685758792736,0.44410564466797364,0.40381864917937627,0.382287672457692,73.0,left
0.48661095600515036,0.3082479017264639,0.2466993065866092,0.22088787165018597,0.39216201958350894,0.39011883352503496,0.4679300666380515,0.40291901045375234,0.42652023600897326,0.3898397152194981,0.7306655265652768,0.4502065304625633,0.4049974995442973,0.39986618230142756,74.0,left
0.4851464795196385,0.30254659050442534,0.24334629469437496,0.221485497890465,0.3900003860061343,0.3830990491878854,0.4674108476226726,0.41265051602655767,0.42412641836664644,0.3792447686158553,0.7100551074408576,0.44061906852566857,0.39486100249860456,0.3931905520807497,75.0,left
0.4887032929207935,0.2966549219317729,0.24347208252446628,0.22097327779406328,0.38459424336405235,0.37527004113986173,0.46767095162461114,0.41380915465714274,0.42939172327985276,0.38033116450783133,0.712556319179634,0.439529357867416,0.3979252951839882,0.39741864896671064,76.0,left
0.49874507591684925,0.3046369024009641,0.24921410541307898,0.22168470663722462,0.386216497896406,0.3809397483078172,0.4723449117525478,0.4165897108830148,0.43896608226580547,0.39065502946985653,0.7272637033175537,0.452604225886275,0.41136221411984586,0.41900321493006576,77.0,left
0.5039751214287627,0.30387692058262417,0.24942369858680613,0.22202622282929174,0.38405383496960255,0.3812091467985681,0.45338896723886446,0.39689550147297936,0.4200571106913431,0.3787015706697616,0.7174587170506515,0.44149050507637266,0.40358341780417906,0.4080994878232529,78.0,left
0.5046029818588949,0.28601300509846705,0.24426847273301755,0.22037565155378436,0.3781083132824996,0.3779701954784631,0.4333935957055184,0.37025034271619184,0.3942073441705114,0.3515354653938605,0.6996497770095615,0.4046627665040212,0.3717580492674477,0.3687135237658916,79.0,left
0.48744757206052913,0.2715697315888974,0.2417116914200923,0.21835516762718266,0.386216497896406,0.3785100206983749,0.43962620186849843,0.36144583629134974,0.3882237116479548,0.340668402485953,0.6954477489094741,0.37568044670664325,0.3524277763362029,0.35113501392215607,80.0,left
0.4788702655498218,0.2797413456165696,0.24338827718083045,0.21955031172429829,0.394324682510101,0.37688951679980853,0.44066463989946225,0.35889736076593604,0.3800860078807018,0.3461014166084766,0.702751332912654,0.38679416751671525,0.35808589895639376,0.36448627436368586,81.0,left
0.49205055391942487,0.30159625133547063,0.247202298277732,0.22268075037102297,0.3913508923173321,0.36987076070106895,0.44222328593450744,0.3642263925172209,0.37960742666879543,0.3575116774624778,0.7181590868215033,0.4297227918834867,0.3736443894174961,0.3869606983606113,82.0,left
0.4972805994313383,0.3010259030756126,0.2480824938299191,0.22188391538398433,0.38918925873995747,0.36717060636246757,0.45936146939970346,0.38368896244481476,0.3987552330577211,0.37517026668957243,0.725962989382464,0.45129624112064537,0.3854310974082704,0.39919921251812696,83.0,left
0.48974946137853426,0.27803102462927587,0.24581927066363174,0.2195219152652934,0.38729731468509243,0.37256988680126035,0.46611230558956596,0.39040783109110944,0.4119194069239036,0.382232874650164,0.7263632823336303,0.44127223096882595,0.3936821521336835,0.3936354810975349,84.0,left
0.4884937405182699,0.27765103372003175,0.24586109352084495,0.22057486030054396,0.3816214825205009,0.380399923087694,0.4632561065101166,0.38368896244481476,0.41072249810283346,0.3784294543654969,0.7374687920107545,0.44802793908571736,0.4042900097593538,0.3947482273817231,85.0,left
0.5048117374841423,0.30197624224456643,0.2500943009652661,0.22248154162426337,0.3897296671341959,0.38660945547577086,0.4689694936577178,0.39666342077252104,0.4217326007243196,0.3939152518084299,0.7514758063779001,0.4730879644653516,0.42692070458076437,0.41410730077670177,86.0,left
0.5094147193432006,0.31090856188286065,0.2519384974132759,0.22293686041921268,0.39783785174810227,0.3847195530864518,0.46715173260923226,0.4091754825711984,0.4387263358683624,0.4151051450157155,0.7561779625108227,0.47679198477554774,0.445073024976673,0.42523391613395845,87.0,left
0.49623443097359754,0.2996955729974138,0.24959130927411044,0.22202622282929174,0.39243273845523596,0.3822898254770113,0.4603999074306673,0.39921189629793474,0.4375303386304594,0.41782113474575766,0.7602803460543432,0.470472824873581,0.44248009287145074,0.42367624083298505,88.0,left
0.49518826251569426,0.29418461912613836,0.24959130927411044,0.21997723406026493,0.38810844195126926,0.3863390287463986,0.4637753255256998,0.3876272748652374,0.43011005088920307,0.41293131856911636,0.7669833953682619,0.4748308375667616,0.44318668482680934,0.4176675803956078,89.0,left
0.49979124437475253,0.29855560026982975,0.2519804798997314,0.21841206892861276,0.38405383496960255,0.3839093011371695,0.4606600114328101,0.3795176868879002,0.4188611134534401,0.4091278982844493,0.7710853978618917,0.4752665558420288,0.45120250817702523,0.4170006106121331,90.0,left
0.5041846738312872,0.295894940113433,0.2538664992049544,0.21920884972394128,0.3900003860061343,0.39281898786363634,0.47208480775060746,0.39040783109110944,0.43034979728664613,0.42895927929528277,0.7829916839663724,0.4918280000033626,0.469353930743166,0.4461506648299105,91.0,left
0.5073223824275566,0.285062665929364,0.254872322958023,0.21892428902501437,0.41243196644335,0.4187367678555578,0.5040251836058358,0.43141816750664663,0.4796555126857962,0.47079586776396987,0.8033016452212154,0.5256048807086762,0.5040074627603159,0.48420099435281383,92.0,left
0.5046029818588949,0.27442038719984296,0.252860515822676,0.21573705746030203,0.41864820700218,0.43412538546085244,0.5177879489762018,0.45620932796750946,0.5016757179287685,0.4838357224558276,0.811205763913657,0.5223357487340898,0.519094592641256,0.4926563406411546,93.0,left
0.5002095524023611,0.2622577829375752,0.24774727245531025,0.21272052979990208,0.38351342657536414,0.41360688590772554,0.5084390397316279,0.43141816750664663,0.46696992003133353,0.4528661968952594,0.8029015427949946,0.4828937005096243,0.4929273467247155,0.46951494686075446,94.0,left
0.4939333384327069,0.24952483041544848,0.24326248935073913,0.21055773842797088,0.3608106125916031,0.38849935786508816,0.49857190046037747,0.41195515636103686,0.448539529668591,0.44471615838004297,0.8004003310562178,0.4654608197977561,0.4726543526333309,0.45126861974978905,95.0,left
0.48974946137853426,0.25199549511729824,0.24120885935817915,0.20967555148876493,0.3810810741260511,0.3944384635237945,0.4988310154738178,0.4307228078411258,0.4767831138317504,0.47514248599451925,0.8137069756524338,0.470472824873581,0.500470911665186,0.46150452958937294,96.0,left
0.49351503040493583,0.2580767972484317,0.23995138013032302,0.20910643009093322,0.38081035525432405,0.4038879754703846,0.49675413941189017,0.44277070823888653,0.4875534700556061,0.4895408528828291,0.8252127782808025,0.46502510152231835,0.5188584634362909,0.4801957857171235,97.0,left
0.49518826251569426,0.24705416571374794,0.2392388750800778,0.20816734185029717,0.3697294097968662,0.39092908547431904,0.47805730991144646,0.4293329709462963,0.47558620501049287,0.4832925245099471,0.8229116177550977,0.4495533680192363,0.49882070072010354,0.47485494254697436,98.0,left
0.48995821700378084,0.23603189607498276,0.23793957299500867,0.2067444299722423,0.3816214825205009,0.37419039069982674,0.4596205844131438,0.41126067913172903,0.463858686363011,0.4735128921566627,0.8158080849649889,0.4382213731017872,0.4860912715691885,0.45683150368645364,99.0,left
0.4782432018969667,0.22709993833290376,0.23487995962017028,0.20537847358737193,0.3645950153759401,0.36933093548115714,0.4658531905761256,0.41010204050114396,0.4494976036755718,0.4572128151260202,0.8118059175530279,0.4353887893422961,0.48326221025918503,0.4530483358172779,100.0,left
0.47238529595492107,0.21740763687641884,0.23186224891718243,0.20532157228591963,0.33432442517272065,0.3596115109243989,0.4658531905761256,0.4114918773961538,0.44279564354366574,0.44498827468430946,0.8073038126331769,0.44650251015219755,0.46605350885300023,0.45037791423211715,101.0,left
0.48389155543648865,0.22329894355285607,0.2318202664307596,0.2068013312736945,0.3672970573477645,0.3631214030930803,0.4598806884152866,0.4080168439407945,0.45428432737687086,0.4512366030574029,0.8050026521075497,0.4569622385794547,0.46463942711288286,0.4577213617201972,102.0,left
0.49267761757244255,0.23622189152967898,0.23316155100225155,0.2092202326938155,0.40189142938034017,0.38903918308499996,0.4871461151538776,0.42585705505472315,0.47032090009728744,0.46047303746459356,0.8067032779439156,0.4519502335034602,0.47925519641366154,0.4770804351151767,103.0,left
0.49225930954467145,0.23603189607498276,0.23479615427653444,0.20978940828337944,0.37972953846563584,0.39497828874370633,0.5074006017006658,0.4443926258343538,0.4664913388196137,0.4531383131997355,0.8029015427949946,0.44998908629467316,0.47029665190330583,0.4761905770814323,104.0,left
0.48953990897617317,0.23261125410024608,0.23701747477100366,0.20879336454958108,0.3818922013922279,0.38822893113571766,0.49831179645823465,0.43350336406717815,0.45907105107835733,0.4501491725025666,0.7974986358412517,0.46785768528198,0.456623603762667,0.4699598758775396,105.0,left
0.4882849848930224,0.23850219888076474,0.23613735903342148,0.20850880385065418,0.4062157258843069,0.3830990491878854,0.48818455318483966,0.4193702671090671,0.4602679598994275,0.45476790703759207,0.7996999612853659,0.47831741370906666,0.4587460731174957,0.47797029314892114,106.0,left
0.4918410015170638,0.24040287721882247,0.23261665663927822,0.20842345189848688,0.3821618909147393,0.37338013875054443,0.4775380908960658,0.4142724336220258,0.448539529668591,0.4512366030574029,0.7932967982661094,0.456743964471908,0.45780245412758713,0.4793059276833791,107.0,left
0.488912048546041,0.23470156599678393,0.2324909486237916,0.20845190254920198,0.36648695943080334,0.37067998441194305,0.46455464854322326,0.4080168439407945,0.4377691734447353,0.44879066030632764,0.7862931005575913,0.43909363959214875,0.45709586217241327,0.4712946629282424,108.0,left
0.4855647875472471,0.23128092402204725,0.23450275575913881,0.20959019953661984,0.4037833734352052,0.3874186791864336,0.4689694936577178,0.4212233829689591,0.4521302561321745,0.45395259278723366,0.7977989031858823,0.4419262233516399,0.46463942711288286,0.472185368445742,109.0,left
0.4822175265486157,0.2324208967496313,0.23311956851579607,0.20990321088626174,0.4235139412500235,0.39578854069298863,0.476499652865102,0.4369783975225374,0.47295355255389016,0.4561264192340442,0.8027014915818449,0.41904561928850903,0.4653460190680576,0.4793059276833791,110.0,left
0.4817992185208446,0.24325353282976714,0.23127545188239118,0.2089356719948886,0.40189142938034017,0.3855287767971163,0.46767095162461114,0.42400393919483026,0.4688842448785868,0.4512366030574029,0.7903951030511429,0.3863584492412775,0.4582738147077494,0.4746329017804589,111.0,left
0.4834732474088801,0.2502848122337884,0.23408356941165165,0.21010241963302145,0.3956751888212988,0.3822898254770113,0.46351621051225944,0.41010204050114396,0.4571567262311049,0.452050882644901,0.7856929469182203,0.3972538959438028,0.45450203223742225,0.4577213617201972,112.0,left
0.4769874810367023,0.24078286812791827,0.23383215338067886,0.2109277052707752,0.4062157258843069,0.3857992035264868,0.4637753255256998,0.41566227051703475,0.4626617775417543,0.45395259278723366,0.7898947844934407,0.41708447207955235,0.45898130449269203,0.45660861543600983,113.0,left
0.4788702655498218,0.23622189152967898,0.23026954831471746,0.20990321088626174,0.38756803355682123,0.38903918308499996,0.46948871267309844,0.4221499408989047,0.46696992003133353,0.4428144482377103,0.7884944260016278,0.4157764873139236,0.45709586217241327,0.47552275981420333,114.0,left
0.4826358345762243,0.23945253804971944,0.2308143628630861,0.21018782577689887,0.37135166432921984,0.3820193987478504,0.47130647372158396,0.41821162847848203,0.44542829600026845,0.4213534733888089,0.7824913654085921,0.41948133756377626,0.437058099456225,0.4801957857171235,115.0,left
0.47510469652342024,0.23508155690602806,0.2314430625696955,0.2111838153189649,0.378918411199459,0.3598814235345671,0.4513111021882361,0.40685820531020944,0.41766420463218346,0.40885681664283346,0.7750875652738527,0.42187820304800017,0.42291369073542473,0.46951494686075446,116.0,left
0.48033474203533366,0.23888255168607575,0.2316945584152732,0.2131189472934214,0.3810810741260511,0.3585313463651598,0.4450794850139568,0.4087122036063153,0.4353753558024085,0.42895927929528277,0.7763880886840755,0.4159947614214703,0.4368219702512599,0.4744100135301892,117.0,left
0.49225930954467145,0.25693646262478076,0.23420935724174297,0.21573705746030203,0.39162161118905914,0.3817500002570995,0.4622176684791528,0.42655241472024397,0.46505468360091395,0.4463457522178995,0.7866932029838125,0.4192630634563992,0.4582738147077494,0.48442388260325764,118.0,left
0.48912160094840207,0.2628277693013672,0.2341255518980745,0.21576550811101713,0.41324309370952683,0.3839093011371695,0.4679300666380515,0.4228453005644264,0.44710378603324497,0.4267864875113325,0.7844922585896663,0.41294390355443245,0.45143773955222244,0.48130853200131085,119.0,left
0.47782409709208196,0.2506651650390994,0.23186224891718243,0.21445645302757677,0.40918951607728715,0.37095041114110394,0.4596205844131438,0.4073214842752728,0.42412641836664644,0.4083125840340909,0.7743871955030013,0.3887553147255014,0.4285709155258468,0.4712946629282424,120.0,left
0.47510469652342024,0.2417332072970204,0.2315688503997868,0.21454180497974407,0.38783772307933084,0.36960033397190806,0.4570244893358373,0.4128825967271972,0.43489677459050213,0.4191796469419984,0.7735869906505588,0.3883195964502342,0.42032075863020246,0.454161082101292,121.0,left
0.4763596206065701,0.23565190516588697,0.2314849652415134,0.21431414558224715,0.3813517929979895,0.3604212487544789,0.44481938101181395,0.41774834951359896,0.43561510219985244,0.4202660428339726,0.7753878326184838,0.3972538959438028,0.4247991330557035,0.442812425977694,122.0,left
0.4732219120103007,0.23204090584038717,0.23094015069317742,0.21400113423260514,0.3781083132824996,0.35286163919720615,0.43988531688193877,0.41774834951359896,0.4279559796443193,0.40722618814211664,0.7729864559612976,0.388102152282344,0.42739296299051066,0.4539381938510223,123.0,left
0.4853560319219996,0.23565190516588697,0.23425125991356088,0.2148548705210961,0.38810844195126926,0.3779701954784631,0.4785765289270296,0.4351252816626454,0.4540445809794278,0.4248847773689981,0.7746874628476319,0.39943331726013653,0.4325788272009552,0.4799728974668529,124.0,left
0.5029289529710228,0.24363352373901126,0.23647266022263502,0.2154239919189278,0.41243196644335,0.401727646351695,0.5068813826852852,0.4476364610252892,0.46936373767366035,0.4428144482377103,0.7787894653412617,0.42035277411448124,0.4453082563518693,0.48976387828947754,125.0,left
0.49518826251569426,0.25218549057184614,0.2343769679290475,0.21673304700236806,0.41324309370952683,0.39335881308375953,0.48480913509001144,0.43188144647171,0.4468649512189691,0.42895927929528277,0.7789895165543332,0.3974721700513495,0.45898130449269203,0.48598155790423103,126.0,left
0.48619264797737927,0.2544657979230802,0.23425125991356088,0.21829821213402034,0.4170269818192551,0.3820193987478504,0.45676438533369446,0.4147357125870892,0.4327427033458058,0.41265920226464026,0.7761880374709258,0.36587471066237054,0.45238046071236226,0.4846459233697731,127.0,left
0.48451861908950633,0.25636647626113795,0.23559246467044814,0.21835516762718266,0.42540588530488854,0.39200873591435403,0.46455464854322326,0.41450451432266444,0.432503868531529,0.41157280637266425,0.7702851930094492,0.3780781421305246,0.4318713374160117,0.4690700178437952,128.0,left
0.4782432018969667,0.2575064489885728,0.23504757030747458,0.21838361827789776,0.39621662656496603,0.39308838635438903,0.473902568799093,0.4186749074435454,0.43106721331282927,0.41782113474575766,0.7665832929420406,0.38178216244071983,0.4297497658909517,0.4530483358172779,129.0,left
0.4746863884958117,0.2537058161047403,0.23316155100225155,0.21849742088078006,0.37648605875014596,0.37284031353042124,0.4528697482232831,0.4084801229056767,0.4210151846981365,0.4091278982844493,0.7652827695318964,0.3545435456844084,0.43470039872619903,0.45660861543600983,130.0,left
0.47845195752221414,0.2576964444431207,0.23223945277824676,0.21798520078437833,0.40864910768283735,0.36933093548115714,0.43884687885097673,0.39179766798611926,0.40426028436837047,0.39011183152376283,0.7626813416615605,0.36325957107059903,0.4250352622604847,0.45594079816878086,131.0,left
0.48389155543648865,0.2630177647559151,0.23441887060086541,0.21824131083256815,0.4332433510468565,0.38660945547577086,0.4424824009479478,0.3964322225080972,0.4085684268579506,0.3939152518084299,0.7633817114324124,0.39529274873501574,0.42786432357067206,0.443925172261709,132.0,left
0.48159046289559804,0.2573164535340249,0.23626306704890787,0.21866817897682467,0.4167562629473167,0.39146891069444223,0.4497534451418934,0.41079740016666566,0.42675907082324915,0.41374663281947477,0.763281495300931,0.39921504315275946,0.4361144804663173,0.43947503460923265,133.0,left
0.479498125979954,0.25218549057184614,0.23483805694835236,0.21838361827789776,0.40054092306914235,0.38849935786508816,0.4580629273668011,0.41311379499162104,0.43011005088920307,0.4202660428339726,0.7659831393027483,0.4040096040606942,0.4325788272009552,0.44570488832919697,134.0,left
0.4826358345762243,0.2544657979230802,0.23383215338067886,0.21812750822968585,0.40432481117887065,0.3947088902529554,0.47104636971964364,0.4256258567902984,0.44542829600026845,0.42298306722666545,0.7723863023220048,0.41882734518096143,0.44318668482680934,0.44882023893114376,135.0,left
0.479498125979954,0.2537058161047403,0.2351733581375659,0.21841206892861276,0.42108055945149303,0.3987580935223427,0.476499652865102,0.4439293468692904,0.46601275760770733,0.4240694631186397,0.7705854603540803,0.41904561928850903,0.45426680086222593,0.4485981981646283,136.0,left
0.4826358345762243,0.26035710459951744,0.23739475844664004,0.2191234977717741,0.4199997426628066,0.39281898786363634,0.4614383454616311,0.4304916095767011,0.44255589714603527,0.4142898307653571,0.7631816602193409,0.41904561928850903,0.43635060967128236,0.44882023893114376,137.0,left
0.48786667686541474,0.275180369018182,0.23819106884058638,0.21966422271062302,0.39783785174810227,0.38768910591580585,0.4424824009479478,0.4040776490843374,0.41144082571218377,0.40885681664283346,0.7627815577931196,0.4166479238646277,0.42314892211062105,0.45282629505076244,138.0,left
0.4884937405182699,0.27689069000562494,0.2420470724239434,0.219379607819986,0.4083783888111103,0.38903918308499996,0.4666325135936491,0.4256258567902984,0.43800891984217927,0.42189667133468944,0.7738868769452987,0.40052302791838823,0.46204559717789273,0.47507783079741817,139.0,left
0.4941420940579544,0.2805016893309764,0.24334629469437496,0.21918039907322628,0.38459424336405235,0.38714928069568266,0.4674108476226726,0.44300278893934397,0.448539529668591,0.4273296854574262,0.7724861374035954,0.3955110228423928,0.45921743369747325,0.48286620730228424,140.0,left
0.4941420940579544,0.2763207036418329,0.2436396932117706,0.21863972832608747,0.3737840167785329,0.3847195530864518,0.46715173260923226,0.43721047822299575,0.4394446634777118,0.42271095092240074,0.7639818650717829,0.3872298857919825,0.4568597329674482,0.47263029746270124,141.0,left
0.488912048546041,0.26890907143250065,0.24129266470184763,0.21895273967572937,0.3948650909045508,0.39200873591435403,0.46767095162461114,0.42330857952930945,0.4305886321009229,0.4140177144610906,0.7593795440204509,0.3922418908679779,0.4537954402822475,0.46306135740641796,142.0,left
0.48995821700378084,0.27822102008382377,0.24229848845488355,0.22043255285521435,0.41378350210376347,0.4011878211317832,0.46870938965557496,0.4256258567902984,0.43992324468943167,0.41700582049539925,0.7701849768778901,0.4155590431460334,0.462517855587639,0.47797029314892114,143.0,left
0.4912139378640452,0.29912594852968866,0.2438492863855306,0.22182701408253203,0.4113511496546618,0.40901785741821506,0.4681901706401943,0.4117239580966121,0.42843456085622567,0.41782113474575766,0.7742869793715199,0.41904561928850903,0.46605350885300023,0.476857546864907,144.0,left
0.49267761757244255,0.3042569114918683,0.24288528548967503,0.2217700043976596,0.41270268531507703,0.4154967882970446,0.4663724095917088,0.3869327976357493,0.4056960280039039,0.40641087389175823,0.7638820299901927,0.4059707512696509,0.45638837238746977,0.4530483358172779,145.0,left
0.48430986346425975,0.28943364707320374,0.24183747925018362,0.2212862891437053,0.43054027972581466,0.4055074511303314,0.4624777724812956,0.3964322225080972,0.41598871459920694,0.4077693860879972,0.7621810231038584,0.40444532233613106,0.4540306716574447,0.44882023893114376,146.0,left
0.4765691730089312,0.2795513501620217,0.24108307152808783,0.22182701408253203,0.426486702093575,0.38984840679587407,0.4632561065101166,0.42076010400389574,0.4368120110211091,0.41890753063773367,0.7673838788444516,0.4040096040606942,0.45709586217241327,0.4572764327032388,147.0,left
0.4742680804680406,0.2841123267604093,0.23961607894110948,0.2217700043976596,0.402702556646517,0.38822893113571766,0.4700079316886816,0.4168209091474395,0.42747739843259946,0.4107585267851661,0.7620811880222678,0.3883195964502342,0.45025888918711754,0.44904312718158756,148.0,left
0.4797076783824785,0.287343335176665,0.24146027538915193,0.22120088299982787,0.40108133146338076,0.39686819113302363,0.46844928565363464,0.40430972978479573,0.4188611134534401,0.403151686215832,0.7586791742495991,0.38592273096601026,0.4457805147616156,0.44659559384686975,149.0,left
0.49539781491821877,0.28981363798229953,0.24548388965981327,0.2219123118429892,0.4232432223780851,0.4073973535196487,0.4624777724812956,0.4186749074435454,0.4459068772119883,0.4262432895654502,0.7681840836968941,0.41381534010513654,0.45520952202236487,0.4648419209578343,150.0,left
0.4945611988628391,0.2884833079041007,0.244645676594049,0.22245303678181594,0.42594629369912695,0.4057778778597019,0.46507386755860214,0.44369814860486567,0.47032090009728744,0.44308656454197504,0.7717857676327435,0.4334276421333394,0.46393193732794025,0.47329726724600096,151.0,left
0.48953990897617317,0.2793613547074738,0.2429272679761305,0.22137169528758271,0.40054092306914235,0.39092908547431904,0.46715173260923226,0.44786854172574664,0.46936373767366035,0.42841608134940046,0.7661831905158194,0.4277616446746997,0.462517855587639,0.471517551178513,152.0,left
0.49602567534835096,0.28164202395462734,0.24322066649352614,0.22048945415666665,0.38378414544709294,0.38363990264641856,0.4588422503843246,0.4256258567902984,0.45595981740984826,0.4151051450157155,0.7615808694644874,0.42863308122540467,0.4547381614423873,0.46706741352603665,153.0,left
0.4979084598614705,0.2966549219317729,0.2437234985554393,0.2214000917465876,0.3775679048882612,0.3849889515772045,0.4520904252057596,0.41056531946620733,0.43992324468943167,0.4167347388537834,0.7611807670382666,0.4519502335034602,0.4535593110772824,0.460168895054915,154.0,left
0.49560657054346535,0.3044465450503493,0.2448552697678088,0.22253844292569336,0.39594590769323723,0.38795953264496497,0.4479356840934061,0.4212233829689591,0.4353753558024085,0.42108135708433103,0.7626813416615605,0.4637171167566896,0.45073024976727893,0.4539381938510223,155.0,left
0.48995821700378084,0.29779561845148983,0.24472948193771749,0.22248154162426337,0.4227028139838467,0.39065865874515815,0.43728922180442975,0.41566227051703475,0.432503868531529,0.41293131856911636,0.7585793391680089,0.44977081218712645,0.433521548361095,0.43925214635878884,156.0,left
0.4882849848930224,0.28981363798229953,0.2420470724239434,0.2217985092401069,0.4075672615449335,0.3822898254770113,0.42794031256005827,0.38924919246070555,0.41503064059241357,0.3930999375580715,0.7520759600171929,0.4362602258930002,0.4262141126255896,0.4216736365150533,157.0,left
0.48702926403275804,0.2920943072296005,0.24162788607645647,0.22162780533577242,0.38837813147378064,0.37527004113986173,0.43235515767455457,0.3811396044833675,0.3980369054483708,0.38060328081209605,0.7498750156230471,0.42296791370625186,0.4368219702512599,0.4210058192478243,158.0,left
0.4782432018969667,0.3004562786078875,0.24334629469437496,0.22202622282929174,0.39162161118905914,0.3833694759170463,0.43806755583345325,0.38716399590017403,0.3997123954813473,0.38549309698873735,0.7524764434933826,0.4048810406113983,0.4365867388760627,0.41811335689632134,159.0,left
0.4792885735775929,0.30159625133547063,0.24288528548967503,0.2221684218911789,0.3999994853254769,0.3817500002570995,0.43131671964359075,0.3846155203747603,0.3987552330577211,0.38522098068447264,0.751375590246341,0.3931141573581689,0.4247991330557035,0.4025366038865892,160.0,left
0.48995821700378084,0.29399426177537524,0.24217286025403473,0.2219123118429892,0.40432481117887065,0.38606963025564767,0.44819479910684645,0.3952735838775121,0.39540425299176807,0.3770719768319051,0.7494749131968259,0.3870124416240923,0.42809955494586927,0.4074316705560239,161.0,left
0.4937237860301833,0.2920943072296005,0.24263386945873466,0.22157090403434232,0.40972992447152556,0.4157672150262055,0.49233929429739565,0.4256258567902984,0.4131163157451603,0.3925567396121892,0.7524764434933826,0.3874481598995301,0.44672323592175545,0.43235447537159555,162.0,left
0.49205055391942487,0.2892432897224406,0.2429690908333435,0.22125778430125798,0.41054002238848497,0.43007618219146515,0.5027266415727292,0.44416142756992905,0.44183848112003865,0.4140177144610906,0.7535769156904557,0.3996507614280267,0.4582738147077494,0.4477083401308839,163.0,left
0.48953990897617317,0.2871529778259019,0.24183747925018362,0.22097327779406328,0.41432391049821327,0.4130670606876041,0.47727897588262547,0.4476364610252892,0.45954963229007717,0.4208092407800663,0.7522760112303426,0.39943331726013653,0.44742982787711405,0.4477083401308839,164.0,left
0.4887032929207935,0.2919039498788374,0.241041089041665,0.22100167425306827,0.41810779860794156,0.39497828874370633,0.46273688749473596,0.44161295204451534,0.45524148980049794,0.4161915409076897,0.749374697065345,0.36740013959588946,0.4264493440007868,0.43302144515489616,165.0,left
0.48661095600515036,0.2972252701916318,0.24225666559767056,0.2216562017947773,0.4154057566361171,0.39281898786363634,0.4523505292079024,0.4184428267429068,0.4341793585645064,0.4028795699113559,0.7479739575236413,0.34626282360374105,0.4222062009504812,0.4136623717599166,166.0,left
0.4880754324906613,0.3055872415700662,0.24510668579874917,0.22299376172066498,0.41837851747967036,0.39497828874370633,0.4378084408200129,0.39921189629793474,0.41957852947943675,0.39500164770040413,0.7519761249356023,0.36391356345341386,0.43210746662097677,0.414552229793661,167.0,left
0.49330547800257474,0.30349692967352837,0.2457354653199959,0.22353437827607148,0.42216240558939866,0.40064799591166,0.4497534451418934,0.40361437011927404,0.4121591533215341,0.3890244009691397,0.7529763810011945,0.3763344390894581,0.42715683378572944,0.4285713075024198,168.0,left
0.4880754324906613,0.29019362889154277,0.2427594976595837,0.22208312413074394,0.41378350210376347,0.40820760546893275,0.4679300666380515,0.41010204050114396,0.4030633755473003,0.3825049909544287,0.7504751692624176,0.3687072944218617,0.4174916973200151,0.42501102788351464,169.0,left
0.48912160094840207,0.29057361980063856,0.2427176748023705,0.22222532319263122,0.40162173985783056,0.4149569630769214,0.46767095162461114,0.4080168439407945,0.41048366328855757,0.38739480713107177,0.7584791230364498,0.3719764263964471,0.43564311988633886,0.4185582859131065,170.0,left
0.4976989074591094,0.30292658141366946,0.24661550124294052,0.2252134543940263,0.40162173985783056,0.41360688590772554,0.4681901706401943,0.4151989915519714,0.43800891984217927,0.4118449226771421,0.7750875652738527,0.3872298857919825,0.46393193732794025,0.43613679575684294,171.0,left
0.49916338394462034,0.30615758982992514,0.24892070689568335,0.22672171822422627,0.41810779860794156,0.4033481502502614,0.46195756447721426,0.4221499408989047,0.4451894611859917,0.42895927929528277,0.7771886745864083,0.3979078883266167,0.47123937306344477,0.45282629505076244,172.0,left
0.5025106449432517,0.30330657232276526,0.24741189145149178,0.22524185085303117,0.42162199719516025,0.39848869503159,0.4445602659983736,0.40685820531020944,0.4181427858440898,0.41048641048069,0.7607802835621547,0.38417902792494374,0.45143773955222244,0.43480200870631336,173.0,left
0.49539781491821877,0.30406655414110517,0.2437234985554393,0.22396130061201602,0.4110814601321522,0.3965987926422727,0.43988531688193877,0.38229824311377136,0.3975583242364644,0.3835913868464047,0.7468734853265682,0.346916401016812,0.4179630579001765,0.3980864662339396,174.0,left
0.48138091049323695,0.30216659959532954,0.24242427628497487,0.22407510321489832,0.4118915580489002,0.39200873591435403,0.4419631819323646,0.3769692113624865,0.4092867544673009,0.3841345847924966,0.7504751692624176,0.3384178197985115,0.4144274046348144,0.3842902767756238,175.0,left
0.48096260246546585,0.3006459121663685,0.24393309172916644,0.22475813559905466,0.41432391049821327,0.3955181139638295,0.44170307793042607,0.3957368628425755,0.4322641221338994,0.41157280637266425,0.7625811255300796,0.37393757360523416,0.44978752860714,0.40609688350532114,176.0,left
0.4947699544880866,0.30216659959532954,0.24338827718083045,0.22518494955157886,0.40567531749006847,0.41171698351840824,0.45754370835121794,0.4161264319181317,0.44088040711305876,0.4248847773689981,0.7667833441551903,0.40204845685190715,0.4662896380579653,0.43480200870631336,177.0,left
0.5027201973457753,0.3012162604262274,0.24217286025403473,0.22401820191346822,0.39324283637219715,0.4230563978543156,0.4752011108319971,0.4158943512174931,0.43393961216687593,0.40586767594566453,0.7586791742495991,0.39442131218431165,0.4387083104013074,0.42612377416770286,178.0,left
0.49246886194719597,0.30216659959532954,0.24158606321924325,0.22239613548038595,0.38756803355682123,0.4184663411263969,0.4718256927371671,0.4096387615362618,0.42843456085622567,0.3789736869742395,0.7424712154883077,0.3830901472063495,0.40782656085448465,0.398531395250898,179.0,left
0.49037652503155194,0.30197624224456643,0.24062198250878297,0.2235059818170666,0.41324309370952683,0.4198164182955928,0.4674108476226726,0.4135770739565041,0.4279559796443193,0.36593279761952147,0.7306655265652768,0.37001527918749044,0.39038173024351863,0.39452618661520766,180.0,left
0.49874507591684925,0.30615758982992514,0.24221468311124772,0.22581108063430522,0.44189194405499954,0.42683620263295197,0.4692286086711581,0.4033831718548493,0.42292950954538977,0.3583269917128362,0.7310656289914981,0.3482235558429547,0.3776523010926036,0.39586097366573725,181.0,left
0.501464476485511,0.31946016681962863,0.2448552697678088,0.22646560817601435,0.4402707188718633,0.42737602785286377,0.4655930865741853,0.3832256834799317,0.40641435561325423,0.34908952264278525,0.7354678988297585,0.3456088312209271,0.376944811307661,0.38985316071228837,182.0,left
0.49937293634698143,0.3175594884815709,0.24519049114241764,0.22601028938106493,0.41810779860794156,0.4160366135169564,0.4624777724812956,0.3887859134956422,0.38870229285986113,0.3531650592319284,0.7393698501102386,0.35868328427004137,0.38920287987841373,0.3925235822972759,183.0,left
0.4941420940579544,0.30216659959532954,0.24225666559767056,0.22435971810553534,0.3994590769310271,0.4130670606876041,0.46429454454108043,0.4172841881125029,0.40521744679199756,0.3816896767040703,0.7499748507046373,0.3697970050801134,0.41136221411984586,0.40609688350532114,184.0,left
0.49581612294582644,0.2974156275423949,0.24058007983696506,0.22279455297390527,0.39756713287616385,0.4233257963450683,0.4707872547062033,0.4443926258343538,0.4518905097345449,0.41320343487338107,0.7679840324837444,0.3713224340136332,0.43281495640592027,0.42501102788351464,185.0,left
0.4995816919722289,0.3000762876987917,0.24242427628497487,0.223648289262374,0.40783798041666053,0.4179265159062737,0.46844928565363464,0.45041701725116035,0.47654336743411996,0.4254279753150918,0.775587883831633,0.36500327411166555,0.43988626293664357,0.4383622883250444,186.0,left
0.4983267678892416,0.3133788646884943,0.24368167569822607,0.2256971696479806,0.4235139412500235,0.40658710157036637,0.4471563610758844,0.4221499408989047,0.45500265498622117,0.42352626517275915,0.7688844534677459,0.3793852969564959,0.4380008206163648,0.4368046130240719,187.0,left
0.5012557208602644,0.3255414689507621,0.24242427628497487,0.22601028938106493,0.420540151057045,0.40793717873977187,0.4300181776104859,0.38600535726977014,0.4305886321009229,0.4167347388537834,0.7613808182514159,0.40357388578542697,0.4318713374160117,0.42590088591725905,188.0,left
0.49330547800257474,0.31147818635043745,0.24016097330408281,0.22492883950338916,0.40972992447152556,0.4165764387370796,0.43832765983539357,0.39295630661652314,0.43633342980920276,0.40641087389175823,0.753977018116677,0.38919103300093916,0.41466263601001163,0.4123275847092138,189.0,left
0.4765691730089312,0.2964652883732919,0.2402866813195692,0.22455892685229495,0.42675639161608636,0.42764542634361646,0.44559870402933743,0.39944397699839307,0.4255621620019925,0.38141859506245446,0.7391694178471981,0.3532355609187796,0.3882601587182739,0.38807259716087117,190.0,left
0.4698746510115068,0.30406655414110517,0.24175367390654778,0.22495734434581438,0.42162199719516025,0.42386664980359967,0.42897973957952207,0.3612141968089082,0.38056504488400567,0.34881844100116766,0.7236618288567587,0.3501847030517409,0.36350789237180336,0.36270571081226866,191.0,left
0.4730123596077762,0.31128855279195644,0.2428014801460392,0.2255833670450983,0.3818922013922279,0.40523805263958046,0.41859239230418854,0.34870257622806733,0.3606989108859162,0.33822349439752486,0.7179590356083536,0.37066844163081836,0.35431411648625044,0.3615929645282545,192.0,left
0.4884937405182699,0.3139492129483532,0.2455676950034491,0.22675011468323114,0.3864861874189156,0.4057778778597019,0.4391069828529153,0.3811396044833675,0.3786498084535852,0.3409405187902177,0.7186594053792055,0.4016127385764703,0.35855725953655515,0.382287672457692,193.0,left
0.5025106449432517,0.3257318263015252,0.2492979107567148,0.22854299340406814,0.43405447831303334,0.4262963774128288,0.4663724095917088,0.40129797529449984,0.3949256717798608,0.35017695319761977,0.72586296377585,0.4410547868009358,0.36987260694716895,0.3980864662339396,194.0,left
0.5062762139696533,0.33200276199113965,0.2512259125483933,0.2297666423436311,0.436216111890408,0.4244064750235115,0.4666325135936491,0.4087122036063153,0.4140734781687865,0.3716379280465212,0.7375686270923452,0.4552185355383891,0.3882601587182739,0.4040942791875626,195.0,left
0.5060674583444067,0.33200276199113965,0.25080688583014865,0.22936822485011177,0.4064864447562453,0.41117715829828505,0.44300161996332843,0.42076010400389574,0.4368120110211091,0.39038291316537865,0.7407705896519423,0.45151451522819297,0.39745393460382683,0.40209167486962993,196.0,left
0.5008366160553788,0.33295310116009436,0.2491303000694105,0.22822998205442624,0.4121622769208386,0.41360688590772554,0.43209604266111423,0.4098699598006865,0.42843456085622567,0.3844067010967631,0.7339669431564957,0.4482453832536075,0.38778879813829636,0.39919921251812696,197.0,left
0.4983267678892416,0.3291524682762619,0.2466993065866092,0.2279168623213419,0.42567557482739815,0.419276593075681,0.44767558009126507,0.3843834396743029,0.40545719318962714,0.37517026668957243,0.7275637801372388,0.42623621574118076,0.3778875324678008,0.39764153721715445,198.0,left
0.4939333384327069,0.326111817210621,0.24472948193771749,0.22822998205442624,0.3989186685367887,0.4160366135169564,0.4565052703202541,0.3820670448493475,0.4056960280039039,0.37598454627707056,0.7284642011212403,0.4096747715798461,0.3797738726176645,0.3980864662339396,199.0,left
0.48661095600515036,0.32782213819806305,0.24351406501092177,0.22720543347818056,0.38081035525432405,0.41360688590772554,0.45676438533369446,0.3950415031770538,0.42652023600897326,0.37408283613473614,0.7292647870235731,0.4181733527981475,0.3767086821026959,0.3956389328992218,200.0,left
0.4859830955750182,0.3255414689507621,0.24330447183716197,0.22660780723790153,0.4189189258741184,0.4211664954649983,0.4557259473027324,0.39249302765164007,0.42340809075729613,0.3618582956932368,0.727463754530703,0.40945732741195595,0.37058009673211156,0.3860699928431126,201.0,left
0.49246886194719597,0.32744214728881893,0.24598688135093605,0.22831527981486122,0.4516213538518308,0.4241360482943506,0.44144396291698573,0.3850787993398237,0.4013878855143238,0.3561531652662371,0.7337668919434241,0.40945732741195595,0.37953774341288327,0.3860699928431126,202.0,left
0.5066945219974244,0.34131507253852966,0.25059729265638886,0.2298235436450612,0.4318918153862299,0.418196942635646,0.4391069828529153,0.40940668083562315,0.41766420463218346,0.3844067010967631,0.7450726433586436,0.452604225886275,0.3991041455489093,0.3980864662339396,203.0,left
0.5121341199116989,0.34549569633160626,0.2513936828649399,0.22953892875442417,0.42513516643295013,0.42494630024363467,0.4707872547062033,0.44740526276086445,0.461943449932404,0.4107585267851661,0.7454727457848644,0.4510787969527552,0.4139551462250681,0.4027594921368589,204.0,left
0.49811721548671706,0.32402150531408225,0.24707667007688294,0.22777455487603437,0.4375676475508232,0.4330457350208192,0.49078163725084867,0.4550506893371047,0.47032090009728744,0.3939152518084299,0.7368686383714622,0.38178216244071983,0.4042900097593538,0.3907430187460319,205.0,left
0.48995821700378084,0.3046369024009641,0.24489709262502202,0.22581108063430522,0.39783785174810227,0.4157672150262055,0.46429454454108043,0.43095488854176445,0.44183848112003865,0.3716379280465212,0.7336666758118651,0.3628238527953318,0.37953774341288327,0.38161985519046304,206.0,left
0.4945611988628391,0.3044465450503493,0.24581927066363174,0.2252134543940263,0.37648605875014596,0.4038879754703846,0.4378084408200129,0.40106589459386033,0.4279559796443193,0.3784294543654969,0.7365683710268311,0.3911521802097253,0.3748232397824163,0.3909659069963025,207.0,left
0.5012557208602644,0.30653758073902093,0.24544206680260028,0.22555486220267318,0.4062157258843069,0.4163070402463269,0.43728922180442975,0.389481273161163,0.4327427033458058,0.38603629493483105,0.7377690593553856,0.38003928933931075,0.3915605806084397,0.4096571631242263,208.0,left
0.5006278604301322,0.30748791990812396,0.24615449203824058,0.22544105959979088,0.4037833734352052,0.4219767474142806,0.44092474390140257,0.39921189629793474,0.43106721331282927,0.38087436245371187,0.7387693154209773,0.37393757360523416,0.39957550612907156,0.41900321493006576,209.0,left
0.5020923369156431,0.3101478562722386,0.24850168017740604,0.22575407094943278,0.39324283637219715,0.4154967882970446,0.43702911780248943,0.40940668083562315,0.429152888465576,0.38467778273837894,0.7442720574562327,0.40357388578542697,0.396511213443687,0.4176675803956078,210.0,left
0.5094147193432006,0.305967232479162,0.24959130927411044,0.22612409198394723,0.4099996139940352,0.4198164182955928,0.4375483368178701,0.41450451432266444,0.43633342980920276,0.3925567396121892,0.7511755390332695,0.41098275634547576,0.40594022070443625,0.42345335258254124,211.0,left
0.5046029818588949,0.30216659959532954,0.24762148462521893,0.2255264657436682,0.4064864447562453,0.4154967882970446,0.4333935957055184,0.41380915465714274,0.44207731593431543,0.3928278212538068,0.7522760112303426,0.39246016497535496,0.41206970390478936,0.43302144515489616,212.0,left
0.49748935505658487,0.3036865632320094,0.24502288045511333,0.2253557618393337,0.3832437370528545,0.39308838635438903,0.42015103833923373,0.39550478214193685,0.43106721331282927,0.39038291316537865,0.7483740599498625,0.3865767233488251,0.3927394309735437,0.42523391613395845,213.0,left
0.49246886194719597,0.2998859303480286,0.24322066649352614,0.22538415829833858,0.38756803355682123,0.3965987926422727,0.42274713341654024,0.3813716851838258,0.4140734781687865,0.3776151747777874,0.7377690593553856,0.37720587564016217,0.3679862667973053,0.4027594921368589,214.0,left
0.4859830955750182,0.29456461003523415,0.2420470724239434,0.22490044304438428,0.40162173985783056,0.41360688590772554,0.4248249984671686,0.38785935556569573,0.40426028436837047,0.3518065470354763,0.72586296377585,0.36325957107059903,0.3642144843269781,0.39207865328048985,215.0,left
0.49539781491821877,0.3014058939847075,0.2435978703545576,0.22515655309257399,0.4099996139940352,0.399568345471625,0.4061281689667249,0.3839201607092395,0.3906175292902816,0.3414837167363114,0.7251625940049982,0.3761169949215679,0.37058009673211156,0.40387139093711877,216.0,left
0.5031385053733839,0.30691757164826505,0.24535810182972195,0.22586798193573532,0.4159461650305669,0.3830990491878854,0.39989655179244554,0.3649213109647258,0.37649573720870233,0.35044803483923737,0.7275637801372388,0.3887553147255014,0.36586469527206056,0.4185582859131065,217.0,left
0.49874507591684925,0.30330657232276526,0.24418466738934907,0.2256118718875456,0.3956751888212988,0.38957900830512315,0.4105430140812194,0.3656166706302475,0.377692646029959,0.3477320451091934,0.7260630149889993,0.3737192994978571,0.3599713412766734,0.42056089023103915,218.0,left
0.49748935505658487,0.3008362695171316,0.24187946173663888,0.22495734434581438,0.3810810741260511,0.3976784430823077,0.40924447204831704,0.3776645710280082,0.3930113469326084,0.34528713702097846,0.7302650430891648,0.3604269873111079,0.3646858449071395,0.4170006106121331,219.0,left
0.49602567534835096,0.3012162604262274,0.2420470724239434,0.22484343335951185,0.39162161118905914,0.40064799591166,0.40768582601327186,0.39295630661652314,0.4147918057781368,0.3667481118698799,0.7375686270923452,0.3763344390894581,0.3807165937778043,0.4201159612140799,220.0,left
0.4937237860301833,0.3012162604262274,0.24493907511144464,0.22507114694869668,0.3918923300609993,0.399568345471625,0.41261989014314704,0.4114918773961538,0.4334610309551561,0.3871226908268053,0.7429715340460881,0.3983436066020545,0.3969825740238493,0.43947503460923265,221.0,left
0.49037652503155194,0.29931558208816966,0.24523247362884049,0.22478653205805954,0.3748648335672211,0.38822893113571766,0.40690749198424836,0.40616284564468774,0.4360936834117588,0.3890244009691397,0.7495747482784165,0.39572846701028297,0.40381864917937627,0.4514906605163045,222.0,left
0.48953990897617317,0.297034912841017,0.24284346263246182,0.22447352070841764,0.3710809454574928,0.38417972786633037,0.404051292904799,0.3938828645464687,0.4286743072536696,0.3849498990428568,0.7512757551647509,0.38570445685846355,0.4014609484493503,0.43613679575684294,223.0,left
0.4910043854616841,0.29836524291921496,0.24263386945873466,0.22472963075662955,0.38540537063022917,0.38606963025564767,0.40145420883879,0.4003705349283395,0.427237652034969,0.3841345847924966,0.7471737526711988,0.38483302030775857,0.39839665576396666,0.4216736365150533,224.0,left
0.4851464795196385,0.2998859303480286,0.24305289617697934,0.22498574080481926,0.3918923300609993,0.3844491263570813,0.38898998550152886,0.39805414010356444,0.4200571106913431,0.38630841123909576,0.748774543425974,0.38766560406742023,0.4005182272892105,0.4279034902351908,225.0,left
0.4824270789509768,0.3000762876987917,0.2427176748023705,0.22487193820193696,0.3902700755286457,0.3857992035264868,0.38872988149938603,0.37928648862347547,0.4049786119777208,0.3879380050771637,0.7525762785749732,0.38679416751671525,0.40287592801923644,0.4370266537905865,226.0,left
0.4884937405182699,0.30254659050442534,0.24229848845488355,0.22458732331129994,0.38891853986801905,0.3874186791864336,0.40067488582126654,0.3813716851838258,0.40521744679199756,0.38549309698873735,0.7496749644099756,0.3887553147255014,0.39863278496893173,0.442144608710465,227.0,left
0.4947699544880866,0.3044465450503493,0.24234047094133904,0.22441661940698754,0.38729731468509243,0.38903918308499996,0.3918461845809782,0.3890179941962808,0.40785101083195396,0.3827760725960463,0.7485744922129025,0.4022659010197973,0.394389641918627,0.44659559384686975,228.0,left
0.48974946137853426,0.30159625133547063,0.24317868400707066,0.22518494955157886,0.38783772307933084,0.39011883352503496,0.3726306305594038,0.3686284251207246,0.3913358568996319,0.38196179300854816,0.755977911297673,0.41882734518096143,0.4052336287492624,0.444592989528938,229.0,left
0.47845195752221414,0.3008362695171316,0.24313686114985744,0.22501424564726658,0.38729731468509243,0.38660945547577086,0.3741882876057465,0.3593606397308182,0.3851124779796322,0.3830481889005224,0.7637818138586336,0.42383935025695685,0.42456390168050717,0.44236749696073563,230.0,left
0.48410031106173523,0.3017866086860854,0.24351406501092177,0.22316446562497727,0.38378414544709294,0.3847195530864518,0.3786031327202428,0.3774324903273687,0.40186646672604365,0.39527272934202173,0.7674837139260422,0.4281973629499669,0.4295145345157545,0.4477083401308839,231.0,left
0.49225930954467145,0.3014058939847075,0.24661550124294052,0.22302215817966986,0.38864885034550767,0.38417972786633037,0.37289024006709415,0.3887859134956422,0.4076112644343235,0.4102142941764253,0.7723863023220048,0.4419262233516399,0.42809955494586927,0.45972396603795573,232.0,left
0.49351503040493583,0.3048272597517272,0.2500104956215974,0.22472963075662955,0.3897296671341959,0.38822893113571766,0.37886274222813565,0.3846155203747603,0.40545719318962714,0.41320343487338107,0.7737870418637085,0.4467199543200877,0.4330501877811166,0.47507783079741817,233.0,left
0.5083685508852973,0.31185817725968157,0.250513487312753,0.22549796090122087,0.38540537063022917,0.39524871547307683,0.3970393637242937,0.39249302765164007,0.41933969466515997,0.41320343487338107,0.7675839300575231,0.44214366751953005,0.43422903814603764,0.4799728974668529,234.0,left
0.5169458573960046,0.3135692220392574,0.24984288493429307,0.22447352070841764,0.38945894826246885,0.39578854069298863,0.41080212909465974,0.41056531946620733,0.4279559796443193,0.4096710962303316,0.7619809718907087,0.44715567259552547,0.4295145345157545,0.4752998715639336,235.0,left
0.5071128300250329,0.30691757164826505,0.2486273083782875,0.22276604813145795,0.39243273845523596,0.38768910591580585,0.3996364477903027,0.40685820531020944,0.4135948969568801,0.3933710191996873,0.7582790718233783,0.44998908629467316,0.4243277724755421,0.46706741352603665,236.0,left
0.4945611988628391,0.3004562786078875,0.24590307600730021,0.22162780533577242,0.3813517929979895,0.38363990264641856,0.3791223517358242,0.3876272748652374,0.40162763191176776,0.37951688492012003,0.7503753341808275,0.4332093680259623,0.41112698274464954,0.44748545188061417,237.0,left
0.4910043854616841,0.3006459121663685,0.24514866828520465,0.2219692131444193,0.3743244251727713,0.38849935786508816,0.37886274222813565,0.37974976758835766,0.4040214495540946,0.38196179300854816,0.749374697065345,0.4175201903549901,0.4002829959140142,0.43368926242212513,238.0,left
0.49330547800257474,0.3048272597517272,0.24686707690312315,0.22259534422714566,0.3832437370528545,0.3839093011371695,0.38405592137145117,0.3846155203747603,0.4083295920436738,0.39011183152376283,0.7569785484131555,0.423185357874142,0.4068829418645761,0.43457912045586955,239.0,left
0.4822175265486157,0.29779561845148983,0.24531627897250896,0.221855410541537,0.387026595813154,0.37014015919181986,0.3723710210517135,0.3820670448493475,0.40689293682497407,0.39065502946985653,0.7567784972000839,0.4321204873073672,0.4085331528096585,0.4281263784854614,240.0,left
0.4746863884958117,0.28525302328012714,0.24137647004548346,0.22105857555449826,0.37081125593498143,0.3623111511437962,0.36276299679369917,0.36839634442008506,0.3985163982434443,0.3830481889005224,0.7486743272944931,0.42144248477273294,0.39745393460382683,0.414552229793661,241.0,left
0.4828453869787479,0.2877233260857608,0.24410086204571302,0.221542399191895,0.3656758321646265,0.36771043158259076,0.37029365049533336,0.36329939336925854,0.3951654181774913,0.38196179300854816,0.7484742760813434,0.4151233248707662,0.39768916597902315,0.4161099050946344,242.0,left
0.4884937405182699,0.2996955729974138,0.24716047542051878,0.22245303678181594,0.37243248111790805,0.3766201183090576,0.37600604865423204,0.3744207358370728,0.3994735606670714,0.38630841123909576,0.7517760737225312,0.42274963959870515,0.3993393769241065,0.42501102788351464,243.0,left
0.4912139378640452,0.29912594852968866,0.24347208252446628,0.22168470663722462,0.3618919440548982,0.3787794191891276,0.3697739369857045,0.3811396044833675,0.39731948942218764,0.37978796656173763,0.7496749644099756,0.4196987817316664,0.3922671725637983,0.42211856553201166,244.0,left
0.49205055391942487,0.29342463730779933,0.24284346263246182,0.2212862891437053,0.36000000000003496,0.381479573527729,0.37289024006709415,0.38415224140987814,0.3958828342034879,0.37652774422316426,0.753376864477306,0.4234036319815191,0.4045261389643189,0.4263458149342174,245.0,left
0.49518826251569426,0.30767755346660497,0.24900467186856146,0.2239896970710209,0.38513465175829076,0.3844491263570813,0.39314472661388056,0.4045409280492205,0.41048366328855757,0.39608804359238015,0.7633817114324124,0.44563024366200565,0.42715683378572944,0.4388072173420037,246.0,left
0.4937237860301833,0.3179402031829488,0.2511421072047575,0.22581108063430522,0.3983782601423407,0.39200873591435403,0.40145420883879,0.41774834951359896,0.42939172327985276,0.415919424603425,0.7664830768105597,0.45151451522819297,0.42385641189556456,0.4352469377230985,247.0,left
0.48912160094840207,0.30634722338840614,0.24640606769842321,0.22401820191346822,0.3859457790244676,0.39146891069444223,0.38535446340455604,0.40106589459386033,0.43393961216687593,0.41727793679966574,0.7647824509741161,0.4493350939118592,0.41772692869521144,0.4230084235657561,248.0,left
0.48786667686541474,0.29760526110087504,0.24489709262502202,0.22214002543217404,0.3775679048882612,0.3755404678690226,0.3731498495747827,0.38276152207883474,0.42221118193603946,0.4118449226771421,0.7637818138586336,0.4458485177693836,0.425506622840647,0.41789046864587753,249.0,left
0.4824270789509768,0.3006459121663685,0.2466993065866092,0.22236763063793863,0.38405383496960255,0.36960033397190806,0.37340945908267553,0.38484671863918507,0.405935774401347,0.40804150239247505,0.7618811368091185,0.42558305329785284,0.41560535717015146,0.4176675803956078,250.0,left
0.48786667686541474,0.30767755346660497,0.24728610362140047,0.223363674371737,0.38081035525432405,0.3776997687490926,0.3708128695109165,0.38855383279518385,0.40880817325558105,0.40885681664283346,0.7606804484805645,0.4236219060890667,0.4061763499094013,0.41878032667962195,251.0,left
0.501464476485511,0.3217408360669296,0.24812447631637435,0.22501424564726658,0.378378002805011,0.3855287767971163,0.37029365049533336,0.38924919246070555,0.42747739843259946,0.4167347388537834,0.7652827695318964,0.44366909645304986,0.42362118052036735,0.4254559569004739,252.0,left
0.4983267678892416,0.32763178084729994,0.24887888403847014,0.22629479588825951,0.39756713287616385,0.3847195530864518,0.37029365049533336,0.3901757503906511,0.42388667196901597,0.41782113474575766,0.7674837139260422,0.4353887893422961,0.4332863169858978,0.4270136322014473,253.0,left
0.4857743399497707,0.3055872415700662,0.24804067097270588,0.22447352070841764,0.39783785174810227,0.3779701954784631,0.36432114833449614,0.3839201607092395,0.3966011618128382,0.3920135416660955,0.7581792367417877,0.41185419289617986,0.42314892211062105,0.4183353976628368,254.0,left
0.47552300455119134,0.2917143163203564,0.24435227807665338,0.2214285965890127,0.362432352449348,0.37149023636122713,0.3666581283983623,0.3839201607092395,0.3939685093562346,0.3735396381888556,0.7527763297880448,0.41621220558936045,0.4200846294252374,0.4136623717599166,255.0,left
0.4792885735775929,0.3006459121663685,0.24422649024656207,0.22231072933650853,0.368648593008178,0.3774303702583417,0.377564200195029,0.3945782242119904,0.4109622445002774,0.3947295313961394,0.7608804996936356,0.43734993655108223,0.4304572556758943,0.42211856553201166,256.0,left
0.48682050840751145,0.30615758982992514,0.24854350303461903,0.22464422461275213,0.40486521957310906,0.38930858157575265,0.38405592137145117,0.3938828645464687,0.41168057210962683,0.4099432125348077,0.7653826046134866,0.4482453832536075,0.43847218119634235,0.42768144946867626,257.0,left
0.48033474203533366,0.30254659050442534,0.24774727245531025,0.223363674371737,0.3754052419614595,0.3844491263570813,0.3910668615634547,0.3846155203747603,0.4030633755473003,0.3971744394843544,0.7610805509067853,0.44759222081044925,0.4380008206163648,0.4214507482647827,258.0,left
0.48075305006310476,0.3006459121663685,0.24514866828520465,0.22202622282929174,0.3478377230792802,0.3787794191891276,0.4011941048368497,0.3945782242119904,0.4021062131236741,0.38657949288071336,0.7599800787097126,0.45216767767135035,0.43069248705109153,0.41900321493006576,259.0,left
0.49309672237732816,0.31033821362300174,0.24707667007688294,0.2235628831184966,0.3994590769310271,0.3955181139638295,0.40508973093576106,0.4091754825711984,0.4119194069239036,0.39174142536183076,0.7612806021198568,0.46916484010795134,0.4264493440007868,0.42367624083298505,260.0,left
0.4983267678892416,0.32326079970360944,0.2490884772121973,0.2241320045163505,0.4329726321749163,0.418196942635646,0.41261989014314704,0.4128825967271972,0.42843456085622567,0.4045101984120727,0.7598798625781531,0.47744597715836257,0.43281495640592027,0.4247881396332449,261.0,left
0.49351503040493583,0.32364079061270523,0.24787290065619194,0.22287985073434025,0.40972992447152556,0.4235962230742292,0.4315758346570311,0.4260891357553618,0.4396844098751558,0.4208092407800663,0.7617809206776371,0.4687291218326841,0.4401223921414248,0.4270136322014473,262.0,left
0.49246886194719597,0.3122388919610595,0.24657367838572752,0.22202622282929174,0.4083783888111103,0.418196942635646,0.4385877638375364,0.4348932009620068,0.437050845835385,0.4194517632464745,0.7630814440877818,0.456743964471908,0.4361144804663173,0.4301289828033932,263.0,left
0.5052300455119134,0.30767755346660497,0.24690889976033636,0.22222532319263122,0.4235139412500235,0.4184663411263969,0.42871963557758175,0.4193702671090671,0.4305886321009229,0.3990761496266888,0.7591794928073017,0.4460667918769303,0.4252704936356819,0.4212278600143389,264.0,left
0.5092051669406761,0.30710720520674606,0.24414268490292623,0.221855410541537,0.402702556646517,0.41414671112763735,0.4214485913836379,0.4091754825711984,0.42939172327985276,0.4004346618231409,0.7572788157577861,0.4366959441682683,0.4257427520454282,0.41099195017475587,265.0,left
0.4995816919722289,0.3008362695171316,0.24246625877143035,0.22108708039694558,0.3743244251727713,0.3982182683024309,0.41106223309680257,0.41404123535760107,0.429152888465576,0.41755005310414184,0.7619809718907087,0.4443230888358638,0.43564311988633886,0.41566497607767516,266.0,left
0.49686229140372973,0.30748791990812396,0.24766330748243193,0.22293686041921268,0.3900003860061343,0.38606963025564767,0.3967802487108534,0.41126067913172903,0.42604074321389973,0.4110296084267837,0.764282132416414,0.46502510152231835,0.43493652793098025,0.42523391613395845,267.0,left
0.49811721548671706,0.3223111843267885,0.25068109800005733,0.2261524884429521,0.41783810908543195,0.3849889515772045,0.395481706677951,0.3982853383679892,0.41048366328855757,0.388481203023046,0.7576789181840073,0.46088453299719845,0.4243277724755421,0.41655568159534795,268.0,left
0.4979084598614705,0.3245911297818074,0.2475376792815831,0.2260955871414999,0.40513490909562044,0.3822898254770113,0.4001556668058859,0.3869327976357493,0.39636141541539427,0.37951688492012003,0.7498750156230471,0.43277364975052457,0.4214987111655386,0.39897632426768403,269.0,left
0.4949795068904477,0.31946016681962863,0.24682509441670053,0.22450202555086496,0.39297314684968576,0.3844491263570813,0.4011941048368497,0.39689550147297936,0.4126377345332539,0.38766692343554787,0.7499748507046373,0.4236219060890667,0.42338505131540227,0.4000890705518714,270.0,left
0.4947699544880866,0.31926980946901384,0.24879507869480166,0.22555486220267318,0.4083783888111103,0.39362821157451044,0.40327196988727554,0.4149677932875466,0.4269988172206931,0.39038291316537865,0.751375590246341,0.4268902081239956,0.41419127542984935,0.4058739952550505,271.0,left
0.5037655690264016,0.3251614780416663,0.2484596976909832,0.22680701598466124,0.4035136839126938,0.39254856113447545,0.4063882729688677,0.40616284564468774,0.40904700806985694,0.3838635031508808,0.7483740599498625,0.41207246700372746,0.40263979881427137,0.40320442115381816,272.0,left
0.5004183080276077,0.32744214728881893,0.2473280861078233,0.2258394770933102,0.38891853986801905,0.3833694759170463,0.3962610296954727,0.3887859134956422,0.39205327292581504,0.3770719768319051,0.7470735365396397,0.39529274873501574,0.4049974995442973,0.39586097366573725,273.0,left
0.4884937405182699,0.31622915840337207,0.2457354653199959,0.22478653205805954,0.3910812027948225,0.3790498459184981,0.38119972229200183,0.3846155203747603,0.39468683696558493,0.37625666258154666,0.7482742248682719,0.38766560406742023,0.4052336287492624,0.3842902767756238,274.0,left
0.4855647875472471,0.3093878744538987,0.24322066649352614,0.22461582815374725,0.3824326097866777,0.3822898254770113,0.3861337864220795,0.3890179941962808,0.40713268322260365,0.3825049909544287,0.7470735365396397,0.3822178807161576,0.39816142438876945,0.3813969669401933,275.0,left
0.48933035657364865,0.3253518353922811,0.24410086204571302,0.22549796090122087,0.3908104839228823,0.38957900830512315,0.40431040791823936,0.40430972978479573,0.4255621620019925,0.3936431355041652,0.7509754878201198,0.3939855939088739,0.4130124250649292,0.3994212532846424,276.0,left
0.49644398337595863,0.32896211092549876,0.24682509441670053,0.22618099328537722,0.4081076699391719,0.39524871547307683,0.4105430140812194,0.4184428267429068,0.4358548485974829,0.3939152518084299,0.7516758575909717,0.4055350329942131,0.4250352622604847,0.4012018168358855,277.0,left
0.48995821700378084,0.3090078835448029,0.2457354653199959,0.22501424564726658,0.40054092306914235,0.4057778778597019,0.41106223309680257,0.4135770739565041,0.42340809075729613,0.38060328081209605,0.7375686270923452,0.3815647182728297,0.39886801634412805,0.3696042292833912,278.0,left
0.4857743399497707,0.30254659050442534,0.24493907511144464,0.22433121326311023,0.4070268531504837,0.41279663395844324,0.4149568702072157,0.4052362877147422,0.4174244582347404,0.3781583727238811,0.7289645196789425,0.3741550177731243,0.38142408356274693,0.3640404978629723,279.0,left
0.4914226934892927,0.30805754437570076,0.24586109352084495,0.22529875215446116,0.41648657342480533,0.4014582478609441,0.4131391091587302,0.40616284564468774,0.4255621620019925,0.3841345847924966,0.7379691105685349,0.41141847462091263,0.3967464448188842,0.38473520579240983,280.0,left
0.4887032929207935,0.3050168933102073,0.24368167569822607,0.22430281680410524,0.387026595813154,0.39011883352503496,0.41184155611432605,0.4124193177621329,0.429152888465576,0.38196179300854816,0.7476736901790106,0.43386336040877627,0.4047613703395161,0.38184274344090685,281.0,left
0.4822175265486157,0.30292658141366946,0.2417116914200923,0.22182701408253203,0.3829730181809161,0.39848869503159,0.4131391091587302,0.4080168439407945,0.43034979728664613,0.382232874650164,0.7486743272944931,0.4244933426397717,0.4052336287492624,0.3680465539824178,282.0,left
0.475941312578799,0.3055872415700662,0.2428014801460392,0.22245303678181594,0.40864910768283735,0.401727646351695,0.4045705119203804,0.38716399590017403,0.42604074321389973,0.38114647875818974,0.7467732691950091,0.40706046192773204,0.4167842075350716,0.3647083151302013,283.0,left
0.4824270789509768,0.31109819544134165,0.24514866828520465,0.22509954340770155,0.3986489790142791,0.39119848396506995,0.40171431284093106,0.389481273161163,0.427237652034969,0.3882101213814302,0.7538768019851179,0.39442131218431165,0.42786432357067206,0.3749442249697852,284.0,left
0.49225930954467145,0.3137588555977384,0.24502288045511333,0.2253272569969086,0.39162161118905914,0.39011883352503496,0.40768582601327186,0.4151989915519714,0.4341793585645064,0.4004346618231409,0.763281495300931,0.39333160152605906,0.43139997683603415,0.3938583693479787,285.0,left
0.48661095600515036,0.30577687512854723,0.24326248935073913,0.22307905948109996,0.38378414544709294,0.3847195530864518,0.39989655179244554,0.41751626881296033,0.4315457945245491,0.3944584497545236,0.7587793903810804,0.39594674111783057,0.42079211921018,0.40053399956865654,286.0,left
0.483054939381109,0.2960852974641961,0.24418466738934907,0.2217131030962296,0.36324347971552484,0.3760802930891458,0.3892491005149692,0.4091754825711984,0.4253233271877166,0.3838635031508808,0.7510757039516793,0.40095874619365546,0.4049974995442973,0.39118794776281796,287.0,left
0.4859830955750182,0.29874595762059286,0.2457772881772089,0.22225382803505633,0.38783772307933084,0.39362821157451044,0.40249264686975206,0.4172841881125029,0.42388667196901597,0.38739480713107177,0.7550774903137496,0.42035277411448124,0.40240456743907504,0.39118794776281796,288.0,left
0.4864022003799029,0.30235623315381055,0.24250808162864335,0.22236763063793863,0.4270271104878134,0.4187367678555578,0.42716197853103655,0.4205280233034374,0.42053569190306295,0.38549309698873735,0.7532766483458251,0.4186099010130713,0.4045261389643189,0.3969737199499255,289.0,left
0.48912160094840207,0.3017866086860854,0.2409154608407833,0.22211152058974892,0.4170269818192551,0.4187367678555578,0.43365369970745693,0.4179795477780237,0.4183816206583666,0.37489815038509455,0.7438719550300115,0.38919103300093916,0.3950962338738009,0.3909659069963025,290.0,left
0.48912160094840207,0.3017866086860854,0.2409154608407833,0.22211152058974892,0.4170269818192551,0.4187367678555578,0.43365369970745693,0.4179795477780237,0.4183816206583666,0.37489815038509455,0.7438719550300115,0.38919103300093916,0.3950962338738009,0.3909659069963025,291.0,left
0.4945611988628391,0.31071820453209753,0.24586109352084495,0.2241320045163505,0.40918951607728715,0.41387731263688643,0.43053739662606905,0.4316493657710714,0.44016299108706214,0.39174142536183076,0.7507754366070483,0.40030475381084063,0.39462487329382334,0.3947482273817231,292.0,left
0.49309672237732816,0.3234511570542242,0.24766330748243193,0.2259248832371875,0.43054027972581466,0.4246758735142624,0.4318359386589714,0.446478704830918,0.46505468360091395,0.41809325105002415,0.764282132416414,0.4332093680259623,0.41489876521479285,0.40698674153906467,293.0,left
0.4876571244628902,0.3255414689507621,0.24602870420814926,0.2252134543940263,0.42297250350635807,0.42548612546354647,0.4222279144011596,0.4374425589236344,0.4629006123560302,0.41836433269164,0.7638820299901927,0.4292870736082186,0.4288070447308119,0.4027594921368589,294.0,left
0.4887032929207935,0.3139492129483532,0.2464898730420917,0.22501424564726658,0.4083783888111103,0.41063733307837325,0.41028291007928086,0.4221499408989047,0.45787414225710066,0.41293131856911636,0.7602803460543432,0.4166479238646277,0.4285709155258468,0.3936354810975349,295.0,left
0.49225930954467145,0.30406655414110517,0.24766330748243193,0.2258394770933102,0.4170269818192551,0.41009750785825005,0.4149568702072157,0.42400393919483026,0.4662515924219841,0.42243986928078314,0.7641822973348233,0.4242750685322241,0.4264493440007868,0.3965287909329662,296.0,left
0.4941420940579544,0.3090078835448029,0.24795670599982778,0.22527035569545628,0.4202704615345336,0.4165764387370796,0.41677463125570124,0.4193702671090671,0.45859246986645097,0.414833028711449,0.7631816602193409,0.42122421066518534,0.4200846294252374,0.39452618661520766,297.0,left
0.4970710470289772,0.3095782318046618,0.24799868848628304,0.22438811456454022,0.40162173985783056,0.40982708112908917,0.4011941048368497,0.39689550147297936,0.42484474597599675,0.3849498990428568,0.7534766995588966,0.3987793248773217,0.40240456743907504,0.37538915398657036,298.0,left
0.4914226934892927,0.3014058939847075,0.24778909531252324,0.22504264210627145,0.39783785174810227,0.40766778024902095,0.39833790575740036,0.3869327976357493,0.4030633755473003,0.3792447686158553,0.7500750668361968,0.3904990177665679,0.3932107915535221,0.3662659904311747,299.0,left
0.483054939381109,0.30292658141366946,0.24531627897250896,0.22447352070841764,0.40405409230693223,0.41252723546769055,0.40171431284093106,0.3908711100561728,0.40378170315665063,0.37625666258154666,0.749374697065345,0.3839615837570536,0.39768916597902315,0.37227380338462357,300.0,left
0.4857743399497707,0.305967232479162,0.2435978703545576,0.22276604813145795,0.37675677762208437,0.3982182683024309,0.3910668615634547,0.3825303238144109,0.40234595952111807,0.3613150977471431,0.7429715340460881,0.36500327411166555,0.39486100249860456,0.370271199066865,301.0,left
0.48451861908950633,0.30216659959532954,0.24481328728135332,0.22322136692642958,0.3645950153759401,0.3798600978677822,0.3902885275344312,0.3781278499928904,0.39923381426944093,0.3664770302282623,0.7451724784402338,0.3689255685294093,0.39462487329382334,0.37449929595282594,302.0,left
0.4907948330591605,0.31147818635043745,0.24799868848628304,0.2253557618393337,0.40162173985783056,0.39011883352503496,0.3985980097593407,0.3978220594029258,0.41431322456623043,0.39038291316537865,0.7594797601519323,0.4007404720862784,0.41112698274464954,0.4009789285856158,303.0,left
0.503556813401155,0.3245911297818074,0.24942369858680613,0.22632330073070694,0.4275675188822632,0.41090673156912416,0.40249264686975206,0.41635763018255645,0.437050845835385,0.40885681664283346,0.7665832929420406,0.4207884923899181,0.42739296299051066,0.4225634945487968,304.0,left
0.5023010925408906,0.31622915840337207,0.2482501045172234,0.2255833670450983,0.41837851747967036,0.4168468654662387,0.4172938502710819,0.4179795477780237,0.44470996839091814,0.4205381591384505,0.7647824509741161,0.4253647791904758,0.4290422761060091,0.4263458149342174,305.0,left
0.49853552351448815,0.3036865632320094,0.24833390986089188,0.22495734434581438,0.4159461650305669,0.41468653634776054,0.4307975006280076,0.4147357125870892,0.44375280596729194,0.41157280637266425,0.765482820744968,0.42383935025695685,0.4247991330557035,0.41878032667962195,306.0,left
0.4947699544880866,0.30349692967352837,0.24741189145149178,0.22495734434581438,0.4116218685263888,0.4063177030796137,0.4146977551937754,0.40639492634532637,0.4351365209881326,0.39038291316537865,0.7612806021198568,0.4040096040606942,0.4174916973200151,0.40387139093711877,307.0,left
0.4943516464603155,0.30767755346660497,0.246657483729396,0.22524185085303117,0.402162148252069,0.39173830918519315,0.3892491005149692,0.3832256834799317,0.41144082571218377,0.38114647875818974,0.7503753341808275,0.37677015736489494,0.4007543564939917,0.3936354810975349,308.0,left
0.4943516464603155,0.3097678653631428,0.24791488314261456,0.2253272569969086,0.3997297958029655,0.3849889515772045,0.37704498117964835,0.36144583629134974,0.39468683696558493,0.3675634261202383,0.7464733829003474,0.3654389923869328,0.3802452331978259,0.39830850700045506,309.0,left
0.48682050840751145,0.3093878744538987,0.24783107779897873,0.22509954340770155,0.39675703495941406,0.39578854069298863,0.37704498117964835,0.36654322856019306,0.3970797430247446,0.3531650592319284,0.7467732691950091,0.3695795609122232,0.3729368996325526,0.40075688781910035,310.0,left
0.47615086498132353,0.30406655414110517,0.24623829738190905,0.22447352070841764,0.40432481117887065,0.4133374874169746,0.3921062885829185,0.37534729376701925,0.3958828342034879,0.353436140873546,0.7399700037495314,0.3645675558362287,0.36987260694716895,0.38095203792323407,311.0,left
0.4717574355247889,0.3000762876987917,0.2445198887639577,0.22390439931058592,0.42540588530488854,0.42845567829289877,0.41106223309680257,0.37465281653753113,0.3961225806011184,0.3531650592319284,0.734467261714276,0.35737612944407005,0.36680831426196825,0.370939016334094,312.0,left
0.48075305006310476,0.3010259030756126,0.24435227807665338,0.22404670675589333,0.42243209511190827,0.4187367678555578,0.4030118658853352,0.3769692113624865,0.40378170315665063,0.3507201511435021,0.7408704247335325,0.3702327233553806,0.37859502225274344,0.38896330267854395,313.0,left
0.48368200303412756,0.2974156275423949,0.24623829738190905,0.22424591550265305,0.38783772307933084,0.39308838635438903,0.38561456740649636,0.38484671863918507,0.4040214495540946,0.36538959967342777,0.7490744297207144,0.39158872842465,0.3922671725637983,0.4009789285856158,314.0,left
0.4805442944378573,0.2974156275423949,0.24728610362140047,0.22441661940698754,0.37216176224617925,0.38768910591580585,0.3786031327202428,0.3915664697216945,0.40378170315665063,0.3825049909544287,0.7502751180492684,0.3963824593930978,0.38778879813829636,0.39741864896671064,315.0,left
0.48389155543648865,0.3091982408954177,0.24682509441670053,0.2256118718875456,0.39621662656496603,0.38930858157575265,0.37522722013116283,0.3915664697216945,0.4095265008649305,0.38114647875818974,0.7492744809337855,0.38853787055761124,0.37859502225274344,0.3940812575982484,316.0,left
0.4801259864100862,0.31204853461029636,0.24640606769842321,0.22643710333358924,0.4232432223780851,0.39362821157451044,0.3809401127843115,0.39318838731716177,0.4155101333874871,0.3770719768319051,0.74757385509742,0.4081493426463272,0.3762373215227184,0.3914108360132609,317.0,left
0.4765691730089312,0.30216659959532954,0.24741189145149178,0.22612409198394723,0.41729770069098215,0.4041573739611355,0.3858736824199367,0.38855383279518385,0.40258479433539396,0.3672913098157604,0.7401700549626811,0.44846365736115423,0.3727016682573563,0.38874041442810015,318.0,left
0.479498125979954,0.29836524291921496,0.2464478905556362,0.2255833670450983,0.40108133146338076,0.3982182683024309,0.36847588944684784,0.3711769006461374,0.3793681360629355,0.3477320451091934,0.7336666758118651,0.4831119746171719,0.365393334692083,0.3963059026826965,319.0,left
0.48033474203533366,0.2996955729974138,0.24405887955925776,0.22401820191346822,0.3994590769310271,0.3779701954784631,0.34977905994660663,0.3714089813465957,0.38942062046921144,0.35533785101587867,0.7412705271597537,0.498583708120254,0.3729368996325526,0.40631977175576406,320.0,left
0.4828453869787479,0.29342463730779933,0.24443608342032186,0.22233923417893364,0.386216497896406,0.37391996397045624,0.3521165345049253,0.391334389021055,0.41622754941348283,0.3849498990428568,0.7516758575909717,0.4724339720825377,0.3932107915535221,0.4074316705560239,321.0,left
0.4765691730089312,0.2837323358511652,0.2455258721462361,0.2219123118429892,0.3729728895123561,0.37067998441194305,0.35081799247181866,0.38554207830470677,0.41072249810283346,0.38630841123909576,0.7483740599498625,0.4253647791904758,0.39957550612907156,0.399644141534913,322.0,left
0.4717574355247889,0.28658262956604297,0.24523247362884049,0.22248154162426337,0.386216497896406,0.3617713259238844,0.34224890073922065,0.36468967148228426,0.3985163982434443,0.37027941585006907,0.7420711130620865,0.3996507614280267,0.3840170156679692,0.3963059026826965,323.0,left
0.48159046289559804,0.29760526110087504,0.24477146442414033,0.22256683938469823,0.378918411199459,0.3606911613644339,0.3469228608671573,0.36700650752525643,0.40234595952111807,0.3637600058355712,0.7420711130620865,0.3981261624341643,0.372230307677194,0.40453920820434774,324.0,left
0.48159046289559804,0.2998859303480286,0.24481328728135332,0.221855410541537,0.34837813147373,0.3612309865845571,0.35081799247181866,0.36607994959531087,0.38726654922432857,0.3583269917128362,0.7409706408650139,0.3907164619344581,0.3715228178922514,0.4025366038865892,325.0,left
0.47866150992457523,0.29817560936073395,0.24598688135093605,0.22202622282929174,0.36351316923803445,0.37688951679980853,0.34925984093102347,0.34453218310718636,0.3566300590021969,0.34202691468219193,0.7362681036822005,0.38200043654826743,0.359499980696695,0.39341344033101944,326.0,left
0.483054939381109,0.30330657232276526,0.24569348283354042,0.22231072933650853,0.387026595813154,0.3839093011371695,0.34406666178770795,0.33063028441350006,0.3413113580995475,0.3221950163398226,0.7304650943022364,0.3719764263964471,0.33828381653019424,0.39430329836476385,327.0,left
0.48075305006310476,0.30672721429750194,0.24439410093386638,0.22222532319263122,0.3786487216769494,0.36663078114255576,0.3352374660529671,0.3269231702576816,0.3362853437922011,0.3105136738442056,0.7231615102990565,0.36216986041251786,0.31801037352401806,0.38584795207659717,328.0,left
0.47217574355239744,0.30406655414110517,0.24368167569822607,0.22174160793865472,0.38351342657536414,0.3620412385338412,0.3331600954967895,0.3239109745491886,0.32982267426615497,0.30589545664071593,0.7191595334119625,0.359991269035671,0.3064588969084392,0.3711610571006094,329.0,left
0.46610908198510437,0.30254659050442534,0.2435978703545576,0.22219692673362623,0.39162161118905914,0.37014015919181986,0.3383537691345593,0.3382761522079383,0.3427475575266641,0.31621828693988263,0.7212606427245181,0.3595555507604038,0.31871741439416823,0.3796172508727045,330.0,left
0.47510469652342024,0.29893559117907387,0.2448552697678088,0.22333516952931187,0.3816214825205009,0.36960033397190806,0.34510509981867,0.36260447492175363,0.3760171559969825,0.3417547983779272,0.7283641755146264,0.37742414974770977,0.34464853110574367,0.39919921251812696,331.0,left
0.479498125979954,0.287343335176665,0.24514866828520465,0.22273765167245307,0.378918411199459,0.3633908015838312,0.34796129889811933,0.36399431181676256,0.38415531555600513,0.35588208362462126,0.7351676314851279,0.3961641852857207,0.35030620481114294,0.39764153721715445,332.0,left
0.47573255695355243,0.2706193924199436,0.24393309172916644,0.2215138943494699,0.36648695943080334,0.3577216085350816,0.34458588080308683,0.36005555817832313,0.3717090135074024,0.345830334966859,0.7366682061084218,0.3963824593930978,0.336397925295123,0.3956389328992218,333.0,left
0.4792885735775929,0.2675787413543027,0.24607068669460475,0.22111547685595057,0.3435134265753135,0.3628509763639194,0.34666325135946696,0.3776645710280082,0.3860696404032584,0.346916730858835,0.7371685246661239,0.4013944644690932,0.3493634836510031,0.415887864328119,334.0,left
0.4801259864100862,0.27213971795268943,0.2477052899688874,0.2212862891437053,0.35621611189030666,0.3817500002570995,0.3614644547607968,0.37998184828899717,0.3949256717798608,0.35533785101587867,0.7377690593553856,0.3987793248773217,0.36916511716222544,0.4303518710536638,335.0,left
0.48033474203533366,0.27213971795268943,0.24657367838572752,0.22214002543217404,0.38081035525432405,0.39146891069444223,0.3726306305594038,0.36538458992978917,0.371230432295496,0.3455582186625943,0.7364681548952721,0.388973588833049,0.35879249091175236,0.42923912476964876,336.0,left
0.4822175265486157,0.28069168478567263,0.24703468759042746,0.22279455297390527,0.38540537063022917,0.3820193987478504,0.3741882876057465,0.370713621681074,0.37099068589805295,0.3428411942699032,0.7357677851244202,0.38853787055761124,0.34724146321096594,0.4281263784854614,337.0,left
0.47845195752221414,0.2949446009444783,0.24695088224679163,0.22270914683002796,0.38945894826246885,0.37284031353042124,0.37470800111557967,0.3788232096584121,0.3879848768336789,0.3512633490895958,0.7359678363375699,0.38330759137423964,0.3507775653911205,0.4247881396332449,338.0,left
0.4817992185208446,0.3128085164286354,0.24619647452469606,0.2239896970710209,0.3867569062906444,0.36690120787171665,0.3596466937123095,0.3714089813465957,0.3851124779796322,0.34854632469690294,0.7357677851244202,0.37720587564016217,0.35478547706622887,0.42612377416770286,339.0,left
0.4857743399497707,0.326301450769102,0.24716047542051878,0.22509954340770155,0.38405383496960255,0.3631214030930803,0.33991192067515197,0.37164017961102047,0.3915746917139078,0.34854632469690294,0.7386694803393867,0.388973588833049,0.35384275590608905,0.43368926242212513,340.0,left
0.47866150992457523,0.31603952484489195,0.24456187125041318,0.22211152058974892,0.38540537063022917,0.37014015919181986,0.34977905994660663,0.37233553927654217,0.39636141541539427,0.3512633490895958,0.7387693154209773,0.3839615837570536,0.3462987420508261,0.4254559569004739,341.0,left
0.46715525044300765,0.2974156275423949,0.24070586766705637,0.2195788165667456,0.3786487216769494,0.381479573527729,0.36587880538083883,0.3598239186958816,0.3786498084535852,0.33930989028950087,0.7365683710268311,0.36260640862744165,0.3356904355101804,0.4143301890271456,342.0,left
0.4610877920984384,0.29817560936073395,0.2406639649952056,0.221172486540823,0.3700001286688046,0.3785100206983749,0.35860825568134747,0.35519024660993725,0.37003352347442586,0.3365939005596683,0.7381691617816064,0.36413183756096146,0.3394622179805076,0.4210058192478243,343.0,left
0.4650629135273645,0.30767755346660497,0.24246625877143035,0.22282294943291026,0.37162135385173123,0.3571812691959657,0.34043113969073513,0.35588516505744217,0.371230432295496,0.3466446145545703,0.7338671080749051,0.375244728431376,0.34323400045065,0.4247881396332449,344.0,left
0.4740585280656795,0.3181298367414298,0.24657367838572752,0.22379059670770363,0.3832437370528545,0.3609610739746021,0.34328733877018447,0.3616774757737904,0.3774533554240991,0.34202691468219193,0.7268634103663869,0.3979078883266167,0.33828381653019424,0.432576516138111,345.0,left
0.48389155543648865,0.3339034403291974,0.25260909979173585,0.2259817845386176,0.38026994685987425,0.3833694759170463,0.36743695692163403,0.38299360277929306,0.3958828342034879,0.3314319680785509,0.7264633079401661,0.42950534771559656,0.3394622179805076,0.4557187574022654,346.0,left
0.4817992185208446,0.3382744214728888,0.25382451671853157,0.2278884658623369,0.3700001286688046,0.3809397483078172,0.37470800111557967,0.38716399590017403,0.3958828342034879,0.32491204073251545,0.7185593797726697,0.43277364975052457,0.3314472924598757,0.4603917833051847,347.0,left
0.5039751214287627,0.2827819966822105,0.2435978703545576,0.2256118718875456,0.3897296671341959,0.3736505654797053,0.532848267390972,0.3498612148586524,0.37888955485102915,0.34365650852026164,0.7385692642078276,0.3689255685294093,0.3962750842389058,0.34445938370130413,1.0,right
0.48661095600515036,0.28145166660401255,0.24431029559023054,0.22760385097169988,0.3778375944107726,0.36420105353311527,0.5120745618286007,0.3470806586325992,0.37266617593102946,0.3441997064661422,0.7373685758792736,0.36631042893763777,0.38778879813829636,0.33422347386172024,2.0,right
0.48953990897617317,0.28620263865694806,0.2455258721462361,0.22840068595873853,0.3743244251727713,0.36933093548115714,0.5193456060225445,0.3591290002483767,0.4004307230906976,0.3515354653938605,0.7381691617816064,0.38069245178263866,0.3800091039928608,0.32799277265782756,3.0,right
0.5056483535395211,0.3006459121663685,0.24959130927411044,0.23067727993355214,0.3697294097968662,0.37041058592119214,0.5245387851660643,0.368860505821182,0.40521744679199756,0.33958200659397697,0.7266633591533154,0.39768961421923965,0.376944811307661,0.33644811894616833,4.0,right
0.5121341199116989,0.3097678653631428,0.25453710158341436,0.234632841642878,0.3537837594412032,0.361501413313718,0.5146716458946097,0.3609825573262855,0.3896603668666554,0.32192341736688235,0.7154578238695772,0.39420303807676405,0.37411574999747366,0.3420118503665863,5.0,right
0.5027201973457753,0.31147818635043745,0.25684230723612433,0.2358565989658611,0.35621611189030666,0.35340197853653343,0.49649403540974735,0.33758123376043336,0.37817122724167884,0.3088835626750246,0.7099550818343219,0.3804750076147485,0.35667091938650763,0.3242096047886518,6.0,right
0.48682050840751145,0.3095782318046618,0.2546628894135057,0.23534437886945947,0.3778375944107726,0.34908234853777564,0.4723449117525478,0.3074606003300886,0.35232146072103365,0.28660675624422893,0.6917458488420656,0.36391356345341386,0.32272487715448417,0.29194462371080565,7.0,right
0.48723881643528255,0.30273622406290635,0.2508906911737845,0.23488906007451016,0.39162161118905914,0.35070182419793205,0.47104636971964364,0.2956443394149497,0.33413127254750474,0.26460206611812254,0.6695348294878163,0.3419043959409871,0.28925019550243913,0.2694701997138802,8.0,right
0.48912160094840207,0.2996955729974138,0.24959130927411044,0.23343769754574017,0.37189207272366964,0.35097225092709294,0.48402981207248796,0.30838759947805094,0.3377215432193177,0.2553656317107187,0.6692345621431857,0.3342772512733916,0.28618545390226213,0.2728080148242187,9.0,right
0.48619264797737927,0.3004562786078875,0.24984288493429307,0.2318156311126579,0.34270281398374536,0.34692253353850155,0.4861076771229138,0.3199722209107483,0.3391572868546646,0.25346392156838604,0.6770384647041463,0.34212225507862115,0.3083447881435113,0.28793941507511533,10.0,right
0.49267761757244255,0.2974156275423949,0.24938187572959292,0.23170172012635537,0.3572974433536018,0.3569113565857993,0.49649403540974735,0.3269231702576816,0.35303978833038396,0.2665037762604552,0.6789395228035517,0.3405968261451022,0.3170672034490858,0.2881618795836811,11.0,right
0.4937237860301833,0.2974156275423949,0.24866929086471035,0.23338079624431007,0.38351342657536414,0.36852068353187306,0.5068813826852852,0.3287767273355904,0.3671611246201927,0.2868788725487068,0.6854427114293444,0.33362367386032066,0.318953094684157,0.28393420643942413,12.0,right
0.49037652503155194,0.30710720520674606,0.24959130927411044,0.23540128017091178,0.3729728895123561,0.3566414439758425,0.4970142434138305,0.3155701883074258,0.34992809887029086,0.28443344712895424,0.6901450580872903,0.3375459682780635,0.3295614012248036,0.2986202539316576,13.0,right
0.5029289529710228,0.3219304696254106,0.25059729265638886,0.23554347923279895,0.3667566489533147,0.34881192180861476,0.4954555973787853,0.30583868273462045,0.3355670161828508,0.2765555249180043,0.6899450068741406,0.34016110786966447,0.33828381653019424,0.3159767230088786,14.0,right
0.508995614538315,0.327062156379724,0.25135170037848464,0.2343483351356611,0.3856760895019562,0.35637153136588573,0.49753346242941365,0.31093607500346465,0.34897093644666377,0.28796526844068104,0.6966482467130826,0.32621480330010133,0.3401697077654502,0.3119715143731874,15.0,right
0.49874507591684925,0.3215504787161665,0.2539503045486229,0.23466134648530312,0.38729731468509243,0.3569113565857993,0.4902624182354698,0.3132529110464368,0.35375766014815024,0.2912254907792544,0.7019509375352664,0.31858765863250493,0.34299832016066123,0.30507341964394286,16.0,right
0.4970710470289772,0.32421113887256325,0.2558363238538459,0.2357996976644311,0.37972953846563584,0.35394180375644524,0.497792577442854,0.3167283857198129,0.35064597068805714,0.28796526844068104,0.701250567764415,0.32643266243790503,0.34158378950556756,0.3126389078985392,17.0,right
0.5020923369156431,0.32820212910715885,0.254872322958023,0.23594189672631827,0.3729728895123561,0.3558317061457643,0.497792577442854,0.3276180887051865,0.3604596202800563,0.3004619251866565,0.7045523654055241,0.33362367386032066,0.34111242892559,0.3175343983098511,18.0,right
0.501464476485511,0.32402150531408225,0.25453710158341436,0.23483205038963761,0.34810792727661166,0.34962217375789706,0.47805730991144646,0.3303986449310585,0.374341665964006,0.3110568717902993,0.7090544703253752,0.33602053934454457,0.3557281982263678,0.31664454027610756,19.0,right
0.5023010925408906,0.3206001395472118,0.2560040941703927,0.23269776386015373,0.33864872167689875,0.3461122815892175,0.46870938965557496,0.32298441661924215,0.374341665964006,0.3026352343019312,0.7072536283574502,0.34016110786966447,0.3679862667973053,0.321762495195812,20.0,right
0.5073223824275566,0.3185098276506739,0.25470471227071867,0.23269776386015373,0.3540539636383233,0.35070182419793205,0.46689162860708944,0.3155701883074258,0.3606989108859162,0.29068177550204943,0.7044521492740432,0.3390713972115824,0.3651581033168858,0.326657985607298,21.0,right
0.5106696434261879,0.3226911752358843,0.2537826938613186,0.23554347923279895,0.3610813314633301,0.3555617935358075,0.4603999074306673,0.3213624990237749,0.3616560733095433,0.30345003122096514,0.7099550818343219,0.34016110786966447,0.3684585252070516,0.3360031899292091,22.0,right
0.51255242793947,0.32307116614512843,0.254579084069837,0.23588499542486607,0.35540549929873855,0.3569113565857993,0.4637753255256998,0.3373495942779918,0.3784105178477253,0.3216518183939421,0.7147574540987254,0.34495525380802583,0.376944811307661,0.34334663741729,23.0,right
0.5073223824275566,0.30767755346660497,0.25327970217016293,0.23315308265510315,0.3545943720325617,0.34665210680934067,0.4606600114328101,0.34012970928584707,0.37649573720870233,0.3145886931020261,0.7098548657027628,0.33122680837609675,0.37128668868747017,0.3299953769757602,24.0,right
0.505021289886666,0.29760526110087504,0.25344731285746747,0.23286846776446601,0.3570272391564835,0.32937358681472695,0.44559870402933743,0.34012970928584707,0.3647677627696364,0.30861196370187294,0.7075537051771357,0.3240353819837676,0.3689298857870291,0.3262130565903387,25.0,right
0.5205026707971596,0.3048272597517272,0.25554308496569256,0.23392141279971668,0.34837813147373,0.33099357659387785,0.45260964422134276,0.35379996849709183,0.38654822161497826,0.3205649051706434,0.7134567401635574,0.33798210152324426,0.372230307677194,0.3411211448490876,26.0,right
0.5215480424777859,0.30729756255736085,0.2549562879309013,0.232498555113394,0.3478377230792802,0.3531320659265784,0.47883663292896994,0.3616774757737904,0.3987552330577211,0.31757679913633474,0.7131566633439501,0.33623881345192164,0.35784976975161253,0.3324429103104771,27.0,right
0.5041846738312872,0.29912594852968866,0.2538664992049544,0.23158791752347307,0.35189181538633996,0.3604212487544789,0.482472155025941,0.35704380368802724,0.3745809565698659,0.3031784322480249,0.7062531817669133,0.31793408121960454,0.34794895299590944,0.3115265853562281,28.0,right
0.5012557208602644,0.2974156275423949,0.25432750840965435,0.2321855437637521,0.3321622769207373,0.34530254375913927,0.46507386755860214,0.3547265264270383,0.3748202471757258,0.3099699585670006,0.7033516770769701,0.32185637563734737,0.3495991639409919,0.30907862827963406,29.0,right
0.5023010925408906,0.3004562786078875,0.2531539143400716,0.23087648868031174,0.3245945007012807,0.3444922918098552,0.46611230558956596,0.35495816590947893,0.39827665184581473,0.3159466879669406,0.7013507838958959,0.3504029771592885,0.3458273814706647,0.3041831378683213,30.0,right
0.49539781491821877,0.2964652883732919,0.2510583018610888,0.22857138986307313,0.3497296671341452,0.3585313463651598,0.4759804338495206,0.3459220200021953,0.38559105919135206,0.2993750119633578,0.6985493048124884,0.36631042893763777,0.34370580994560385,0.2943925807875738,31.0,right
0.4983267678892416,0.2926646554894594,0.24992669027796155,0.2284290824177435,0.35945959160579655,0.3598814235345671,0.4697478276865388,0.3334103994215356,0.35208217011517373,0.2814453410946456,0.6989494072387097,0.37241214467171435,0.34370580994560385,0.3026254625673479,32.0,right
0.5058579059420456,0.2892432897224406,0.2495075039304746,0.22879910345225796,0.35162161118901025,0.35205190136712794,0.4603999074306673,0.3315568423434456,0.3549545689692204,0.2798152299252532,0.7016508607155814,0.3721938705643373,0.33993402747527757,0.31530932948352675,33.0,right
0.5029289529710228,0.2803116938764285,0.24996851313517476,0.2279737636227941,0.34216240558950695,0.35178198875717115,0.4658531905761256,0.3385077916903789,0.3688366146531692,0.2882368674136213,0.7018509119287306,0.3551967081277363,0.3401697077654502,0.3128613724069318,34.0,right
0.5037655690264016,0.2795513501620217,0.2492979107567148,0.22771765357458218,0.3329728895123054,0.3536718911464902,0.47546121483413994,0.34244654532881924,0.3717090135074024,0.29149708975240785,0.7010505165512653,0.34539097208329306,0.34700578292097717,0.3186471445938661,35.0,right
0.51255242793947,0.2886736652548638,0.2492560878995016,0.22871369730838054,0.33810831328244895,0.35151207614721613,0.4637753255256998,0.33688587409491166,0.3717090135074024,0.2890521816639797,0.7062531817669133,0.3593372766528562,0.352663905541168,0.3393414287815988,36.0,right
0.5008366160553788,0.28544265683860814,0.25084870868736164,0.22882749991126283,0.34675690629059375,0.35097225092709294,0.4367700027890491,0.32159413850621554,0.35806580263773036,0.2868788725487068,0.7075537051771357,0.3660929847697476,0.34677010263080454,0.33733882446366703,37.0,right
0.4876571244628902,0.27670069455107704,0.24816629917358757,0.22686391728611344,0.33945933426846686,0.3369331963719979,0.41677463125570124,0.31163099345096956,0.3405934862817812,0.2819885390407393,0.6940470093677704,0.3501847030517409,0.3286182311498722,0.31241644338997254,38.0,right
0.4907948330591605,0.2748003781090871,0.24393309172916644,0.22529875215446116,0.328378388811009,0.321274152037331,0.4136583281741091,0.3188135822803444,0.3391572868546646,0.27519701272176356,0.6869434765776621,0.34909582233314573,0.3234323669394277,0.3032932798345769,39.0,right
0.4857743399497707,0.26852908052340485,0.24527429648605348,0.2253557618393337,0.33081074126032206,0.3366632837618315,0.42794031256005827,0.33063028441350006,0.3559117313928466,0.28742207049458735,0.7017508863221171,0.36391356345341386,0.34323400045065,0.32087221342019046,40.0,right
0.48933035657364865,0.26909906688704854,0.24892070689568335,0.22544105959979088,0.3402704615346437,0.3436825539799866,0.43053739662606905,0.32993536596617545,0.35854483964103334,0.3094267606209069,0.7184591636411106,0.3695795609122232,0.3642144843269781,0.3404541750656138,41.0,right
0.5010461684577399,0.2801216984218806,0.2493398932431703,0.2254126631407859,0.3402704615346437,0.32964349942468196,0.4131391091587302,0.32483797369715095,0.3477740276255936,0.31431709412887265,0.7240621218079251,0.36827157614659445,0.3771800426828573,0.34690691703602194,42.0,right
0.4970710470289772,0.2797413456165696,0.24833390986089188,0.22524185085303117,0.33081074126032206,0.3377429342018665,0.4121006711277664,0.3366542346124701,0.3590234208529397,0.3208370214749081,0.7313655152862379,0.3761169949215679,0.39132445140365846,0.35402747627365905,43.0,right
0.4918410015170638,0.27803102462927587,0.24921410541307898,0.223648289262374,0.33864872167689875,0.3585313463651598,0.4344330227249804,0.3593606397308182,0.39468683696558493,0.3409405187902177,0.7469733204081588,0.40270161929506454,0.4132485542697095,0.37694682928754286,44.0,right
0.49518826251569426,0.28126167114931633,0.24917228255586577,0.22225382803505633,0.3613515356606598,0.3593410841952398,0.43832765983539357,0.37094570238171354,0.4119194069239036,0.35995658555090415,0.7639818650717829,0.42296791370625186,0.4410651133015646,0.39830850700045506,45.0,right
0.5002095524023611,0.27232971340723733,0.246657483729396,0.22202622282929174,0.36000000000003496,0.35178198875717115,0.41677463125570124,0.36329939336925854,0.4028245407330244,0.3686498220122125,0.7759879862578543,0.42471078680766094,0.45780245412758713,0.4027594921368589,46.0,right
0.49623443097359754,0.26035710459951744,0.24439410093386638,0.22048945415666665,0.34702711048792345,0.35232181397729434,0.40586905395328454,0.35403160797953337,0.3985163982434443,0.3675634261202383,0.7787894653412617,0.4240576243643339,0.45850994391253064,0.41032498039145526,47.0,right
0.4914226934892927,0.2575064489885728,0.24410086204571302,0.21866817897682467,0.34810792727661166,0.35097225092709294,0.4056089499513442,0.35565352557500063,0.3987552330577211,0.36593279761952147,0.7778890443572601,0.4242750685322241,0.4568597329674482,0.4232304643322715,48.0,right
0.4949795068904477,0.25579612800127904,0.2445198887639577,0.21886738772358438,0.35108120279477184,0.35016199897780886,0.40249264686975206,0.3586652800652965,0.39372876295879156,0.3686498220122125,0.7803902560960365,0.42471078680766094,0.45992402565283186,0.4285713075024198,49.0,right
0.49518826251569426,0.255226141637487,0.24284346263246182,0.21909504712105898,0.34324322237819516,0.35259172658725113,0.40508973093576106,0.3575070826529094,0.38224007912539815,0.36077189980126256,0.776788572160187,0.42035277411448124,0.45214522933716506,0.42501102788351464,50.0,right
0.4884937405182699,0.24838449579194677,0.2399094774585051,0.2176436845922891,0.3313511496545605,0.35043191158797704,0.4082060340173532,0.3547265264270383,0.37410237535814606,0.3474599288049287,0.7658829231711888,0.40291989340261214,0.43540788851114254,0.41811335689632134,51.0,right
0.4864022003799029,0.23489156145148016,0.23856827270161807,0.21607851946065904,0.3170272391564328,0.3442223791999002,0.4037911889028587,0.35356832901447,0.37266617593102946,0.34936163894726135,0.7601801299227842,0.3865767233488251,0.42385641189556456,0.40631977175576406,52.0,right
0.48933035657364865,0.23869255623137953,0.23940656558198703,0.21616392560453646,0.30135127832327946,0.34557245636930567,0.40249264686975206,0.35704380368802724,0.3774533554240991,0.35479465306978497,0.7602803460543432,0.388973588833049,0.4174916973200151,0.40075688781910035,53.0,right
0.4887032929207935,0.2516151423119872,0.24045437182147844,0.21772909073616642,0.3154054992988975,0.34962217375789706,0.3996364477903027,0.3609825573262855,0.39109611050218795,0.3477320451091934,0.7599800787097126,0.39768961421923965,0.41089085353968446,0.41254962547572926,54.0,right
0.48619264797737927,0.24952483041544848,0.23982567211486927,0.2194934104228683,0.3521620195834583,0.3393629239812288,0.38976930851905234,0.36144583629134974,0.3939685093562346,0.34854632469690294,0.7613808182514159,0.40357388578542697,0.40381864917937627,0.4185582859131065,55.0,right
0.4855647875472471,0.24629418389540803,0.23873596320352708,0.21915194842248908,0.35837826014229,0.3353132065926374,0.38743133946648367,0.35773872213535096,0.3791288454570756,0.3518065470354763,0.7614806533330065,0.4155590431460334,0.3993393769241065,0.40053399956865654,56.0,right
0.4859830955750182,0.2535158206500441,0.24041246914966052,0.21892428902501437,0.3497296671341452,0.35043191158797704,0.3936639456294637,0.35403160797953337,0.3784105178477253,0.3526218612858347,0.7617809206776371,0.439529357867416,0.4061763499094013,0.3938583693479787,57.0,right
0.4884937405182699,0.2588367790667716,0.24213087776757924,0.22051795899909177,0.36378388810976325,0.3577216085350816,0.398857124772781,0.36144583629134974,0.39731948942218764,0.36566171597790387,0.7704852442225207,0.47003710659831377,0.4247991330557035,0.41633279334490414,58.0,right
0.4910043854616841,0.2576964444431207,0.24024477864771865,0.22120088299982787,0.37162135385173123,0.35502145419648024,0.39574181067989134,0.37650593239742314,0.40378170315665063,0.3827760725960463,0.7778890443572601,0.4796245685352094,0.4330501877811166,0.431908698870882,59.0,right
0.4910043854616841,0.2576964444431207,0.24024477864771865,0.22120088299982787,0.37162135385173123,0.35502145419648024,0.39574181067989134,0.37650593239742314,0.40378170315665063,0.3827760725960463,0.7778890443572601,0.4796245685352094,0.4330501877811166,0.431908698870882,60.0,right
0.4918410015170638,0.2584567881576758,0.23995138013032302,0.22011954150557245,0.36756777621949155,0.3593410841952398,0.38717222445304333,0.38368896244481476,0.40904700806985694,0.38603629493483105,0.7764883048155564,0.45848766751297454,0.4292784053107894,0.427236520451717,61.0,right
0.4918410015170638,0.26073709550876156,0.24179549676376078,0.21997723406026493,0.36297276084358643,0.3636612283132017,0.3892491005149692,0.3846155203747603,0.42412641836664644,0.38685160918518946,0.7738868769452987,0.4467199543200877,0.4264493440007868,0.4232304643322715,62.0,right
0.48995821700378084,0.25693646262478076,0.24070586766705637,0.22063176160197406,0.3581080559451699,0.36906050875178487,0.4030118658853352,0.38623743797022847,0.4214937659100437,0.3898397152194981,0.7689846695992268,0.45892338578824177,0.4170203367400367,0.42434321061628566,63.0,right
0.4887032929207935,0.2538958115592882,0.23873596320352708,0.22009103666314722,0.3672970573477645,0.37338013875054443,0.40586905395328454,0.3857741590053454,0.4102439168909271,0.3778862564194032,0.7620811880222678,0.45129624112064537,0.40263979881427137,0.42189567728156785,64.0,right
0.4912139378640452,0.2586467836122237,0.2396579816129274,0.21977802531350532,0.37945984894312623,0.37419039069982674,0.40508973093576106,0.38924919246070555,0.41072249810283346,0.3672913098157604,0.7611807670382666,0.4240576243643339,0.39533236307876596,0.41789046864587753,65.0,right
0.49560657054346535,0.26453809028880926,0.23995138013032302,0.219749520471058,0.37243248111790805,0.37256988680126035,0.4157361932247392,0.39944397699839307,0.4128765693475298,0.3683787403705967,0.7603801811359334,0.4175201903549901,0.3969825740238493,0.42345335258254124,66.0,right
0.48786667686541474,0.2620674255869604,0.23865207804528654,0.21875353092896976,0.35891866853673804,0.3647408787532367,0.4154760892225964,0.3952735838775121,0.405935774401347,0.3604997834967847,0.7544773366743791,0.4149050507632186,0.3929746623487409,0.4256788451507436,67.0,right
0.47803364949444305,0.2590267745213195,0.238484467357982,0.21812750822968585,0.3567565202847547,0.3571812691959657,0.39833790575740036,0.3781278499928904,0.3970797430247446,0.34990483689314367,0.7516758575909717,0.39354987563360666,0.38165931493794325,0.40787744705673745,68.0,right
0.48138091049323695,0.2611174483140726,0.23902936172092293,0.21846897023006495,0.36810818461394135,0.3612309865845571,0.38639290143551985,0.36584786889467136,0.38942062046921144,0.3509912327851179,0.7523762273618235,0.3837433096496765,0.3729368996325526,0.39675083169948167,69.0,right
0.48326369500635646,0.26092745285937635,0.2396579816129274,0.21849742088078006,0.37081125593498143,0.36825025680250256,0.39132696556539504,0.36028719766076467,0.38295840673474846,0.3509912327851179,0.7492744809337855,0.39158872842465,0.367514906217143,0.40075688781910035,70.0,right
0.47803364949444305,0.26073709550876156,0.2392388750800778,0.21821286018185304,0.34756751888216186,0.3558317061457643,0.3952216026758082,0.36468967148228426,0.38846345804558524,0.3474599288049287,0.745973064342567,0.38766560406742023,0.3644506135319432,0.39586097366573725,71.0,right
0.4824270789509768,0.26909906688704854,0.2388616712190137,0.22011954150557245,0.34810792727661166,0.3436825539799866,0.39314472661388056,0.3806763255183041,0.4040214495540946,0.3518065470354763,0.7497747994915658,0.3861401751339004,0.37317302883733383,0.40053399956865654,72.0,right
0.4947699544880866,0.2786013728891348,0.240999266184452,0.22231072933650853,0.3829730181809161,0.3633908015838312,0.4048296269338225,0.38670071693529184,0.40186646672604365,0.3526218612858347,0.7542772854613076,0.39333160152605906,0.38165931493794325,0.42367624083298505,73.0,right
0.49225930954467145,0.27803102462927587,0.24246625877143035,0.22182701408253203,0.37945984894312623,0.380399923087694,0.4206702573546144,0.373030898942063,0.38487273158200175,0.34936163894726135,0.7554775927399708,0.3828718730989724,0.3776523010926036,0.43079680007062215,74.0,right
0.4828453869787479,0.27213971795268943,0.2409154608407833,0.22088787165018597,0.35243222378057837,0.36987076070106895,0.4115814521121832,0.36607994959531087,0.3793681360629355,0.35234974498157,0.7523762273618235,0.3652207182795557,0.36987260694716895,0.41321744274295824,75.0,right
0.4864022003799029,0.26871907597795275,0.24016097330408281,0.2215138943494699,0.3537837594412032,0.3647408787532367,0.4004157708078262,0.3667744268246178,0.38583080558898164,0.3447429044122359,0.742871317914529,0.3630421269027089,0.3536066267013078,0.398531395250898,76.0,right
