Time128Hz,Epoch,AF3,F7,F3,F5,T7,P7,O1,O2,P8,T8,FC6,F4,F8,AF4,EventId,ID_Chunk
,,118.33105202043953,118.06170942902955,118.486022026077,119.1021922117128,117.63370807368759,118.04695439584862,119.19075051562352,117.62264179880404,117.76653850334954,117.74439892737114,117.15036831771373,118.66682036598738,118.27571361980475,118.77381543516798,,
,,547.6782288220508,546.6050138268342,548.4434508756424,551.3174575424241,544.7753391373285,546.5736094050703,551.7494722005089,544.4732143076601,545.1982651650117,544.9408246322921,542.4017294486376,549.2618047557683,547.3999546821733,549.7459460488859,,
,,880.2433273209205,878.880036143331,881.6586552780906,886.1969709973254,876.8355523038188,879.0148123341734,886.8917489139083,875.2783375138885,876.732672864381,875.7990811758848,872.3463170943589,882.6266587887236,879.740256215829,883.8841879291174,,
,,212.44188473149381,212.39420573873815,213.1019671003403,213.92068277135112,214.68474838358662,212.5963106084064,213.54928241439228,211.55363030181812,212.77044134522043,211.545569849676,211.95178544988295,212.227537921085,212.37308163591942,214.67390390376278,,
,,-1214.1737607630002,-1212.6679885064755,-1216.3761041335913,-1222.280800204625,-1205.4912437324888,-1214.044983275478,-1225.6997683534023,-1207.1301435462399,-1207.7664529345063,-1207.1156589170873,-1200.8956881282938,-1218.5266806485565,-1212.9594662483923,-1216.3147440421956,,
,,-1869.4909480805184,-1867.4979366127836,-1874.6655016240143,-1881.4535250236277,-1863.5030312769327,-1871.8271388509024,-1886.999657635594,-1859.608282481202,-1862.8486170325623,-1859.0493528487052,-1851.9865149398909,-1873.1379945953584,-1867.5994391211236,-1875.2500727647957,,
,,-1110.577870398837,-1108.4119399664246,-1114.8395721953154,-1117.0979216728877,-1113.3371471118674,-1111.7247161498265,-1118.5276757481815,-1105.2079258427057,-1109.7884029785462,-1106.3286379443146,-1103.9118448016206,-1109.267681633787,-1109.9265700496742,-1116.3193868133264,,
,,47.69855705745795,49.33715963063233,49.58730694284657,47.60442639115307,41.1059628009868,53.983081379909876,55.92121346511216,49.20906828501869,46.018899607035095,44.073239367769304,41.82464973269471,50.08396211492723,46.773993174948885,44.34286214776937,,
,,596.0869850840212,595.6782463806964,603.7481465214822,598.0339874665103,591.829879697593,606.8916595341296,611.7772525808484,598.7395651691239,598.7877029578723,592.7335250400392,589.3653211962271,594.7806105330571,595.3578643887389,593.7857956909932,,
,,651.096656863704,649.4125285068088,656.7755633627623,653.9658682223935,650.3501336241211,656.1875065114693,661.5883323474839,652.505262335885,655.4078515213592,652.3844519033514,650.7144817412416,648.9851148720481,651.114602461304,648.5360512478077,,
,,720.7292739609388,720.0882931682999,718.977684794596,725.6031768870337,723.7139509621835,716.6319858240566,721.3729042387979,712.6556020880366,716.7404258965502,720.1368220705943,719.9601255126013,721.6258326366236,719.673427458511,720.9495233714175,,
,,822.1741680825581,821.999013567828,818.092910194436,828.2071658980498,828.1400794337349,815.3652471187174,816.6596297846071,805.0179231255215,808.3941957725995,814.0583821047611,812.6891434116246,823.6717344515679,818.9040791935078,828.2234844082399,,
,,694.3545983744901,692.4575944096899,695.3757460525991,700.2942014214675,699.2223757227877,690.541574933385,688.5509893214274,680.00676465371,681.7952212368077,684.4338817192213,680.7956084720456,694.2257736198092,690.8447182923686,702.9331038884937,,
,,344.0397022567029,341.1685407599439,347.3655873402791,349.2513592173908,343.7002257557403,341.605518895607,341.16549185569147,341.36554586041217,342.90631306735105,341.16327512637037,338.93635078578046,344.6878986348714,343.73304904951954,349.1875633395839,,
,,10.601929468723782,9.26532886698358,8.27557470290769,12.853381120341524,4.533108652185405,5.92682122417915,10.359192907511385,17.142679249470646,19.53604532036867,14.952295088556966,17.524187665490132,13.482200054125514,14.754966129237957,11.76282728393943,,
,,-186.01475310638057,-185.71225453220416,-193.18545323332387,-189.24788307005258,-194.56595161198297,-191.83553609677858,-184.95459428241907,-176.78752863765322,-175.93826560755258,-180.19101582479436,-177.02241366730044,-182.47720400875977,-179.84842780271867,-184.53928126309376,,
,,-308.54012180390725,-308.60096377502884,-312.2919613993762,-315.75003330037316,-314.5723308628845,-311.7038497753449,-307.0333583976209,-301.2009887618462,-304.36894715261485,-304.80892661964515,-307.4111358749978,-306.5846173348372,-304.7378413111356,-305.4673876148428,,
,,-408.23313762282606,-408.32664662734896,-405.16623019663245,-414.2642352049944,-408.6791714954197,-407.33987799637123,-407.2628367553987,-405.9572206830153,-410.8825503649531,-407.5119621884905,-412.55770671658433,-411.0948561981297,-409.3386063117211,-408.1583270714208,,
,,-444.89645261440614,-441.4146390652838,-439.4083567459952,-446.37115458327014,-440.1690405287733,-440.1886486761145,-444.37024879147765,-446.7056567300847,-449.96442208341205,-446.88475286946203,-445.5588026244353,-453.7377757103341,-448.90967509136055,-451.30931636759766,,
,,-383.7577074082779,-376.3482047334131,-380.92797460107613,-382.25913359447566,-376.6343954107992,-375.5310452232321,-381.5873036597034,-383.0372157432686,-385.046475069704,-385.3822706069374,-378.5980298261119,-392.4780927099793,-386.5330651896853,-392.61845754052683,,
,,-260.4013264086575,-256.05077453505453,-261.25908237851826,-259.8674331230647,-255.44663798846,-251.71985148561913,-256.17074894434916,-253.90941138801867,-255.6604899462214,-258.21828224687874,-255.84689594234436,-261.5548097188103,-260.9634159434992,-264.93374714544336,,
,,-130.83511200984935,-135.6007336227903,-133.28721171336304,-132.84645773797342,-131.10189274996384,-126.80535155904677,-128.18208503203618,-124.89622187875725,-124.14725053971178,-125.98550761794188,-131.36328194566983,-125.80618231994103,-131.53722378973907,-130.49439465401318,,
,,-15.90044903885665,-25.267777586722374,-17.159543641484987,-18.038553066018196,-18.473374560003535,-17.780530274524054,-17.955209987675858,-16.462905105296926,-12.02586051329149,-12.232581723519445,-17.78598522453254,-10.756259887742516,-17.291471442378892,-15.26493615550936,,
,,85.36062127112396,81.05889071607324,86.37840596686439,86.3884660831522,85.24972124947509,80.88011930738854,80.04802130803968,81.3750344347158,85.37237017849642,86.15953702343242,87.47622022599268,89.95700568322766,85.34303393713229,84.75643276319383,,
,,163.18261727538112,166.13201381712867,164.85647448783837,167.48332390233935,165.52794226286392,159.55274069137639,158.315507447537,159.66814540256036,158.79218001127703,161.3965154768743,167.6111486735209,169.25365106408793,164.55504758593253,164.06355857566615,,
,,201.09055305925148,205.74383627211745,202.1901960486187,206.02853264278218,203.86363337811105,200.35629773348572,199.43492523856605,196.65389040406617,192.59273276200753,197.82532750004395,202.6412083527049,206.76091959105543,201.96439527921723,204.88846549851723,,
,,197.62741384835215,200.37317629661027,199.60812129554137,201.23182391823678,199.6873939311783,199.2313305935021,199.49486846986701,193.6493543112694,190.92458495308045,195.18723353081324,196.68932962842212,200.68179892488993,198.701057534921,203.02774542388,,
,,166.59807901653883,168.08490545376924,168.95374064709466,167.885051013242,164.58050424041102,166.03170418554913,168.38912818329698,168.0052365549454,167.73749354149112,166.09714316590652,166.9594596209922,167.60337594253437,169.0692936457521,172.17211911063038,,
,,120.48094253103574,120.22980074773947,118.36345340890217,117.93520165729778,111.88433764934116,115.04775435543938,117.99560695037574,124.34321516586617,125.7690614937706,119.8136093342962,121.07712431905342,117.54437150920079,121.69106573521331,124.02380400356267,,
,,64.90032085825348,61.567905762939134,57.48170529991141,58.70734951965467,55.36240296989047,59.64370291281037,60.80541513621348,62.93879904293662,66.35315743227937,62.20724353264211,61.91905369893601,54.0759555235621,63.147933594084364,63.004885432316826,,
,,6.782896597716913,2.9005743813358293,1.5029909259816634,0.9400819493061618,5.5280899436182835,7.708639345871617,8.45218710092459,0.5558176923343296,4.615578817153775,3.605589330844566,1.0140155504387565,-7.8507060596221265,5.692561342611867,0.15871615556962126,,
,,-42.391214577387416,-43.31063892706665,-40.77297708197828,-44.53356605602468,-35.01218958616553,-38.11531462135498,-35.43650856601849,-43.55483804495891,-42.539394014936164,-43.93188841659649,-47.07386590517396,-48.85897924043557,-41.10092552032225,-47.47056469268095,,
14.09375,56.0,-74.28741695215686,-73.80131544872438,-71.0741014683499,-74.20226611953555,-67.88141049292643,-73.64960044506752,-71.17612551128764,-69.07206214331038,-71.98766812999487,-74.21230995383006,-76.6055222159496,-68.3927823519759,-74.98223604789032,-74.39812119627004,33025,1.0
14.1015625,56.0,-89.44094925663744,-90.7404728442343,-90.05112804387655,-89.60735375053875,-90.75909157287819,-92.01542762762887,-92.79438988000561,-85.07288517432636,-88.01687540693443,-87.88210420481245,-90.58560784264824,-80.8827766625236,-93.83120566746184,-88.29901717318258,33025,1.0
14.109375,56.0,-91.97560741453782,-93.21416070856013,-92.88199611296871,-91.49881665031289,-96.80855161178415,-91.46321943617139,-94.056738998831,-91.74722298592302,-91.12002320343613,-88.07039129555254,-92.52680898847332,-89.47548242477711,-94.46925742936482,-93.05573105382324,33025,1.0
14.1171875,56.0,-82.26206621369627,-79.4135696375096,-78.44640360835662,-79.50929105237047,-82.88786387547891,-77.60388073248257,-79.43439987867225,-82.97853627048185,-79.63794213057777,-76.90525318911612,-81.4199481401456,-82.13745071246204,-78.79731878543292,-83.98822230608677,33025,2.0
14.125,56.0,-59.278863362760774,-52.98980847739546,-53.792091346444394,-55.35597521149434,-54.871686470605425,-55.52996793061958,-57.23951788703603,-58.88594768616079,-56.07861717771773,-55.79487280414452,-56.456349932800194,-54.21501529163248,-54.582570527433234,-60.21410319609495,33025,2.0
14.1328125,56.0,-27.954999170877613,-22.593115487843207,-26.84190550727405,-24.684866438158537,-24.154988356243976,-27.397474982203534,-30.163435411133563,-28.031555176662366,-27.849330946282336,-28.123044546381863,-24.34627720426623,-19.073567836008294,-29.151600387392435,-29.408709242843585,33025,2.0
14.140625,56.0,1.7819256519642295,3.223251179656259,-0.9623288635863787,4.247847246971631,1.2113555308183805,1.4629346618716426,-0.9466852622323927,0.38080844413121895,-2.5940101318376776,-0.42102260121740187,4.328911173203252,6.4844296947879485,-3.9258893938557122,0.2607492715885371,33025,2.0
14.1484375,56.0,23.26896799502741,19.84669621643856,21.029809029275725,24.775429170059496,22.16163294642527,23.599945561431014,23.290580193714007,22.283856551491127,16.600122992124696,20.59233854026334,24.524763791666942,18.659201281718055,21.60742816722643,24.26575591779971,33025,3.0
14.15625,56.0,35.92589585948741,28.67469821120092,34.92250159626933,35.52084024065702,40.217330417395075,36.24156913540111,37.48109944523284,36.813895431271376,30.826637044156087,32.8913776160789,37.13776297713339,25.214089589445734,41.80213704575809,39.6118398543299,33025,3.0
14.1640625,56.0,40.912929953798354,34.868865140301196,40.417054269923085,38.489834504101324,47.422921997417276,40.28713959194714,41.46862037628112,42.52113043723308,40.56066166242398,39.21490094021233,43.31800398513714,31.101176432734547,48.47931862967303,45.068315225069526,33025,3.0
14.171875,56.0,38.997092491537146,39.318214545636565,40.23377167192946,34.58047573551893,38.11725524963212,37.176132503435966,37.514007477743874,38.67765122790149,42.86847213836873,40.87295218081846,42.27665273858747,32.26911958387102,41.687015206043384,41.69659886909973,33025,3.0
14.1796875,56.0,32.535712002675325,36.92019602565762,34.184147413106416,25.731144446511337,22.998532233007623,30.058118725408477,29.982336395394682,28.730012405214495,35.40472252508356,35.628165251410834,33.35799080605399,26.3483900359887,29.191765964778142,32.09290070126657,33025,4.0
14.1875,56.0,24.775287109935107,26.809327148364545,23.589933482147586,18.655487501070738,15.328106125646002,21.665552201047007,22.84641440177559,18.967021080864455,22.783173507272622,24.207800846248205,20.114544665502635,20.341641095265445,17.820876040241487,21.50622738498521,33025,4.0
14.1953125,56.0,16.028420998980295,15.124068432232875,14.049662787407954,17.24265063631445,12.786435011411996,12.039320934494356,15.822407482955484,13.21572426389109,13.72132349712723,12.491677954913413,9.399834210446272,19.412599011536514,9.914920414872668,14.5999061099034,33025,4.0
14.203125,56.0,4.44428108637851,4.27442674392303,5.115969806898164,14.511109560539083,5.683980377605067,2.0842665642234124,6.939443081826838,9.628592151136473,9.884372609302332,3.6134163522166887,2.7400566059661173,16.382358977212817,3.728320093866202,8.091535080303174,33025,4.0
14.2109375,56.0,-8.647239477190979,-7.807856388451668,-8.300893222007659,2.811256485359621,-5.9929190018794,-6.078853110259615,-3.54997146273422,2.7195178588173547,3.7084130140361395,-5.2280404538053915,-5.313260649552575,3.5999036509183213,-4.476256049765652,-4.290523982344126,33025,5.0
14.21875,56.0,-18.353789563630315,-18.026684737733063,-21.09839642529093,-12.982108135737931,-14.137283698464202,-12.491438992862399,-13.70374777419579,-10.360811993858064,-10.259340598808961,-15.119960117411168,-16.6880599361547,-12.361621997484775,-14.801640280953151,-18.90686966460821,33025,5.0
14.2265625,56.0,-21.942909109247353,-21.4955194041559,-23.257885520326738,-22.660736564169056,-16.044058664564545,-17.071164679162166,-20.605389853170436,-24.216796552104356,-26.599040867571063,-21.895528092064012,-25.378212223119775,-19.95703812648574,-21.88454940516239,-25.947526982627153,33025,5.0
14.234375,56.0,-20.613809062271883,-19.32145301160486,-16.829625852955104,-23.758014774363957,-15.656018720182146,-17.440404733361845,-21.544949436262314,-27.880699006983093,-33.34104197731122,-22.30976642268952,-25.204827325062666,-18.748724582482865,-21.524024650135615,-23.219278623184138,33025,5.0
14.2421875,56.0,-15.448476707606659,-13.381800699977077,-10.955694871598467,-19.266007370601727,-13.725863854933408,-13.598168576572846,-17.233396901066754,-17.36259293088976,-24.337259600825632,-17.44045279728094,-16.331825994448636,-15.27806233947851,-15.455390244090395,-15.661580824728162,33025,6.0
14.25,57.0,-7.5674616061794495,-4.50662676596842,-8.039140392213852,-11.437722021874393,-8.754126505940846,-9.541138644771024,-11.621995930338016,-3.946436168531335,-7.602326429242737,-10.051432883418983,-4.586282574072214,-10.765822811619401,-8.027410207115139,-7.90707680916141,33025,6.0
14.2578125,57.0,-1.3650751371165057,1.139672950502188,-5.574213988233353,-3.931542269265492,-3.8828677764948196,-7.118609282835507,-7.595334330668081,-1.7733695274980477,2.1473549254814515,-3.312773301608601,3.2777536476069997,-2.768477188802919,-2.1919986416305903,-3.6406153078397665,33025,6.0
14.265625,57.0,0.23892364962183876,-1.2271379390685695,-2.0301632496716024,-1.2785673969934663,-1.8200429295163474,-3.3683774095781587,-4.032592960457322,-7.7407667402261495,1.0969895065658193,0.508208745945538,4.626643486884589,5.563769161352326,1.0591566408266289,-3.1709106176435284,33025,6.0
14.2734375,57.0,1.0765638721998556,-4.882633193131625,3.275726149446868,-2.3880237221205647,-0.030613507563430176,3.1016459773983627,2.2289106024391003,-6.286943332247631,-0.6603491502595915,2.7989706331310487,2.370088241059946,6.790609584238908,2.6742313260295134,-0.8388426542401817,33025,7.0
14.28125,57.0,4.70903938254007,-1.9848841979796248,8.415390934610699,-1.549557349007145,2.21907418630704,7.46916057195989,9.79748044922826,5.102994166245992,3.8624454139492883,5.8752955326757785,1.6554742943369547,0.2646926423875158,4.048465844291556,6.254283115267086,33025,7.0
14.2890625,57.0,7.561897496067942,3.5573227840859687,8.527924085982079,3.0108849436527407,1.7256268127163565,4.970308675187681,11.357065495029318,11.88101188490944,9.010470730962766,8.05048438130882,4.026060645437823,-5.572171425289312,4.770215556702652,11.580609812729023,33025,7.0
14.296875,57.0,6.001814507106047,4.791720309515398,3.098768645045098,7.481180335380614,-0.5323180736564552,-0.5848400621660375,4.894590784008855,7.4734691579065355,8.491438157599546,6.986647040721792,5.706449654837712,-4.757123034814654,4.8206457215026575,9.500471789935261,33025,7.0
14.3046875,57.0,3.6102021498580825,4.15103486275207,-0.8443213776388063,8.9981299001943,1.5510446800874576,-0.19414427492520758,0.04110357069473025,3.6457644276925976,6.012481376453067,5.088652865831122,4.364894284981489,-0.4804346436596916,6.309843891432919,5.203870032043255,33025,8.0
14.3125,57.0,4.744127314770196,7.437520774985828,2.32155610622209,8.776632156744114,9.162988921617057,7.9240728219152885,4.236322949576731,8.41125526214725,6.6146288019606345,5.525430939925556,3.397091447790203,2.4943822998435508,8.566733388542005,6.0673120103872975,33025,8.0
14.3203125,57.0,6.63854624794115,11.833633481207315,8.569604634465833,8.553309366993247,14.181693475924263,14.585066691358946,10.564868193583138,11.913759468040638,6.596108650835248,6.28576144137871,4.994069770178342,5.111025154651173,7.462157611083541,8.966490654632892,33025,8.0
14.328125,57.0,4.021101313474219,9.33562787245799,8.974376773179188,7.1981583342490865,9.60287754040425,11.316206591073666,8.942032614306811,5.383033639427865,1.9967822960314834,3.922042938813817,5.656576339298155,9.826037960514668,3.1052235590988886,5.4429160269262695,33025,8.0
14.3359375,57.0,-1.7709792156217787,0.769818403954531,1.8299453159076933,3.2521728779760934,0.3671605080334217,0.6849889531401914,0.876749410552776,-2.7019834547021446,-1.3292508842353925,0.32359474090650053,3.229863670717691,13.309248019397288,0.03437664443241317,-3.3501607165564593,33025,9.0
14.34375,57.0,-4.145659546660482,-3.7394324361394524,-4.302910892884668,-0.5866412008191446,-3.162602544885587,-8.67045064030306,-5.596277656214681,-2.815186691572336,1.1676434811858627,-0.7082319331018994,0.5928644046234837,8.814794887317092,-1.1284229661714136,-7.6924046798811645,33025,9.0
14.3515625,57.0,-1.848801470163309,-1.4137741037076381,-3.6618542712190987,-1.3700266242998822,-0.4327914194072946,-11.29101596149556,-7.721091260911322,-1.4993593425170246,1.1641446526428751,-1.8119197889456586,-1.4610369764704245,-5.112872338689172,-3.8783966492634647,-5.53411106000317,33025,9.0
14.359375,57.0,-0.9694891995735304,-1.8320448942709646,-2.7057124715609433,-2.8360126376839503,-1.0555190489498045,-7.135140395506397,-7.415953360738669,-7.495710978004155,-7.93265815051501,-7.930873430171772,-6.457644391174341,-21.5778952944696,-8.70018887550475,-5.0734688204418035,33025,9.0
14.3671875,57.0,-3.9256795233683732,-9.454904788253458,-7.518591751513355,-8.7317543684605,-8.869419363811346,-0.9780037847525591,-5.311125539134267,-13.762015111902855,-15.885386026662061,-14.403182510222635,-12.962997691038083,-27.95980580958191,-11.591175516255575,-8.234765750486503,33025,10.0
14.375,57.0,-5.987791194682231,-14.654654865119312,-11.469021680689863,-12.930231657778108,-13.853085519484793,1.4379953116989839,-1.313047507372886,-8.870067422158613,-10.586170200157326,-11.25995157492656,-12.28098347577945,-14.107038392000746,-8.817551304469333,-6.2426376492784215,33025,10.0
14.3828125,57.0,-4.588193020552481,-8.932129284800425,-6.616221766604085,-8.28868033504206,-6.56845992150339,0.8580503950573473,2.9195787817153587,3.050178308950919,2.7755008402450443,0.2559996321929674,-1.9453105158259518,12.22131127904133,-1.467209402518364,2.845545292536073,33025,10.0
14.390625,57.0,-2.0412391596033075,2.5573916235832144,2.9428205871788435,0.9111060986297446,5.706262470245875,2.3565548100433347,5.118974814283547,8.427725373704249,10.414509890393845,8.42567475011289,7.527054936656526,26.607719371956932,4.834503521640357,7.851817165271598,33025,10.0
14.3984375,57.0,0.3606586995061889,9.274624450777836,8.31936674241635,6.06711977830129,9.0695154436671,4.355169874180078,3.55448015431557,4.134897534013959,8.21402891998062,8.205308096405332,7.140172109944004,18.882365311708725,6.389452300970021,2.91670905041272,33025,11.0
14.40625,57.0,3.152769955539611,8.786639775253235,7.971504635145195,6.0426110552934915,3.833230067648117,0.8825595231811008,-1.7242148999095832,-1.007424093658983,2.278056303828336,5.613446402083582,2.313586238549348,7.598248074770609,6.167484105905004,-2.28699217197844,33025,11.0
14.4140625,57.0,5.815877686340656,6.993769970607431,6.403834108441956,4.999606617301595,0.5599512377747118,-4.939160972632848,-6.108675739370369,-0.16535391018170742,-1.2018850396668768,5.171964224396504,2.395558587948287,8.57104555984678,7.893257817412206,1.566238791732161,33025,11.0
14.421875,57.0,6.872945164267506,6.880042239500895,5.1504685951694,4.946117723134179,1.136057614221869,-4.14710870297894,-3.9355835013994067,4.753747307044421,-1.2440521275700576,3.454277138611431,4.036535261798406,10.087858010991951,8.045176945169786,8.551469464257508,33025,11.0
14.4296875,57.0,5.031718391027482,3.68748304198553,0.987129289942942,3.862880720452594,-0.7252126877392158,1.58736429718698,2.4691693126447802,7.141462784353465,-0.9212087440967025,-2.564369159340103,-1.8533108911836678,-3.1984423773352972,1.3753942135570867,6.786355726196874,33025,12.0
14.4375,57.0,0.7492776623355724,-4.799573275028706,-5.243280176296423,-0.4874649450869697,-5.196831587359284,2.4443198467645146,4.875576865702996,2.8636042525866543,-2.2644084733163368,-8.099828592557216,-9.318597322230247,-21.58372900072611,-7.664269993200421,-3.0594475570095625,33025,12.0
14.4453125,57.0,-2.8297860815589218,-11.008682511032816,-6.080335175000982,-5.749328180221298,-5.987452180385603,-1.9801848331237863,1.2590306490219803,-5.184735263868589,-3.5099463243832076,-6.974553916402684,-3.7764239912594775,-25.033195984474588,-9.440186937508301,-8.825597626178109,33025,12.0
14.453125,57.0,-3.489990316215966,-8.752062821214054,-0.8866607836570495,-7.26114937527835,-1.624188036461078,-3.1577793984591978,-3.045355989319617,-10.83649159631237,-3.6505262315510407,-1.8930117650511988,9.163738704167528,-14.164831967078001,-4.6514822316555495,-6.711221440887826,33025,12.0
14.4609375,57.0,-3.4667455511430774,-3.7092047294275687,-0.3528765191106089,-5.329015964408569,2.6609811274555994,0.7599223657967258,-4.15236079378964,-11.417475677203953,-4.327092171843972,-0.5728098790908405,8.609346151212947,-6.701147914310127,-3.307212038156351,-6.091567569830403,33025,13.0
14.46875,57.0,-5.692905335538811,-2.780691468087909,-7.53065933633853,-3.727078458592146,3.776459528382091,3.5022926145983746,-1.633247056117213,-7.105027602321357,-4.069110242549044,-2.6508682224389872,-4.577179703075714,-7.4075900898509275,-6.783464457855445,-9.361880782101196,33025,13.0
14.4765625,57.0,-7.662440569082506,-1.3343914868094373,-9.285759903524237,-1.3349266180349701,3.8059823559149635,2.189773549752843,3.3954789230918863,1.5418444911322098,0.9971973877231335,-0.1715782078772463,-6.851900818052599,-1.5100789646066346,-4.384652958436902,-4.785945018163872,33025,13.0
14.484375,57.0,-3.6851580266645527,6.878886780065486,2.053654378130929,5.190139819797139,3.7893705364413393,0.06868535709674006,7.514958924949738,11.267813830072555,9.157906690675858,8.219411201319204,8.275316248931233,17.9914384518152,7.85407681229016,11.336511238402565,33025,13.0
14.4921875,57.0,5.163716519392622,14.22569337097157,13.616821190029768,10.72099913454717,1.891900630021098,-0.03770112057566166,7.548346031880158,16.39387807364909,14.115499314771526,13.723357724888714,18.795948776433008,33.42648244029314,18.050660340209916,22.942247432648543,33025,14.0
14.5,58.0,9.665710407843392,8.659306578490416,10.60674831791168,6.699989765748356,-1.5452943944364819,1.3995761455145583,3.979158282760679,13.51495790327131,12.521224471036788,9.6582848722921,8.439625946893358,24.944422270809213,14.949325100028105,15.946487262423034,33025,14.0
14.5078125,58.0,5.764073296762518,-4.352188299790427,-1.282883514890358,-2.5273746455445405,-3.2945064754477187,2.697403613635288,-0.9993354880659382,4.3306504822082985,5.479872426138513,-0.24741551868318368,-9.884214445422998,0.3908213653047454,3.3014956539497433,-1.128181434764329,33025,14.0
14.515625,58.0,1.0632950346856802,-7.023252569458819,-5.203046225010752,-4.147622149886317,-1.7888004143592582,2.444541973747903,-5.460533189412189,-4.834322260655554,-3.093176622062188,-7.085984000441229,-15.467672709042745,-14.353170966317265,-4.496841548664705,-9.55272643420686,33025,14.0
14.5234375,58.0,1.4616889819412506,2.3017852833135066,0.9750876844832277,1.935155575577582,0.8823671681939658,0.034309737169834875,-7.61400494464425,-8.36221301923483,-8.411584436733605,-6.911730762013505,-9.335701749392598,-11.470840513339269,-5.451040223976165,-5.855810755262993,33025,15.0
14.53125,58.0,1.5991113480412196,5.836173464781481,3.3592166377155763,3.130970591103676,1.305424580132609,-3.282293394080412,-6.982311698705487,-8.0807797280617,-9.666334555235977,-4.444510471335292,-6.5899642595389025,-6.922163207816723,-6.687867853073129,-2.7611272712772035,33025,15.0
14.5390625,58.0,-3.136876796177546,-3.9094664900492404,-3.5537882383249837,-4.580834663683447,-1.2579255507372409,-4.830349279596902,-4.551096578379969,-9.29980786360349,-10.446266468715152,-5.62668165968158,-9.83762897859934,-10.32466375328579,-11.349356918641462,-7.360190205845271,33025,15.0
14.546875,58.0,-6.647689280681902,-12.32838499601769,-8.274734121487313,-10.529598824789701,-3.5107512993074295,-3.443036636165175,-1.19507794010093,-10.512898283202958,-11.33418408174066,-8.369229753149384,-8.689737618775922,-12.195312793626243,-12.78805952614563,-11.226788262929958,33025,15.0
14.5546875,58.0,-3.2077165483076016,-7.9403914293288835,-2.8960451307681723,-5.926881566858668,-1.9446547336725502,-0.4412889838737186,2.8383230253386245,-5.013787334656513,-7.090065178809169,-5.3167234185749095,0.9252547564233566,-3.92830518780805,-5.456181533976647,-4.655377717294968,33025,16.0
14.5625,58.0,2.16272376802344,0.6642088393459744,3.993204577088221,3.6081599026711046,2.6343386105090474,2.679884031863878,7.029870084605065,7.348875543135264,4.732559209251704,4.4411517343786215,11.617425183373157,7.9736096717925875,5.733817257243118,8.050303954032003,33025,16.0
14.5703125,58.0,2.182855105134692,1.9715956707030813,1.8881455350931589,6.205332748298005,4.867009282427659,4.113434661914596,8.581052841565622,15.816839302023993,14.84300231871137,11.006256211939785,14.0035858218193,10.682179954430836,10.317162413160816,12.360739296642038,33025,16.0
14.578125,58.0,-1.9184519334817907,-1.0874391509017869,-6.33743076048502,0.2685388864720295,0.04063360372788338,0.6892966527171893,3.7002988301042308,9.4268380889458,9.93464625407023,5.1783309732811915,5.237923972985087,0.4697974921404864,3.4909132906785914,1.5175062129078327,33025,16.0
14.5859375,58.0,-3.936495304936173,0.22696134791412703,-9.79150711800277,-3.8471013483657543,-7.864120538437334,-6.691396309849935,-5.510306514183185,-6.871702367424987,-6.227745983418643,-6.5058098715922625,-6.261922657884256,-10.801203939494044,-6.947701017113232,-12.78552981797553,33025,17.0
14.59375,58.0,-1.6612630404707147,6.478789692499376,-3.423962617407227,0.845816674132891,-7.750096164491367,-9.379611474329067,-10.208463926752245,-13.941622488260009,-12.173588958036191,-7.571239699919005,-6.63982765006125,-7.852789902953589,-6.666136250942046,-12.832866555068733,33025,17.0
14.6015625,58.0,2.17795768758036,11.227355450392992,7.466829407964951,8.641346395394962,2.4893404242561132,-1.8355093962853601,-6.048210737081149,-3.7845902158525746,0.36301675819822776,4.104462919531628,5.169874589389124,7.083273713456052,6.078013607360106,2.303661980970375,33025,17.0
14.609375,58.0,4.444565748307312,9.27031287092153,14.106148151832798,10.148197396389648,10.389021495327711,7.648054763478385,0.4141885142122277,7.811602744961263,12.278801933858247,11.579901378397977,12.570285641253463,16.087137425845484,14.442603362925183,14.486457174261702,33025,17.0
14.6171875,58.0,3.7065738496255136,1.5130323330852633,12.738812500344295,4.329911042413187,7.364551543811515,7.933047774122755,2.1987971589271353,5.4218721780166845,7.091792049509678,4.484257151977417,4.200281434789957,10.985991161191208,6.954992407079658,10.56239404843491,33025,18.0
14.625,58.0,0.48690528652561227,-5.710629507252591,6.038824321334388,-2.2320730438369765,-0.4274536375448008,1.6856105924446751,2.2095266430947618,-3.1189414001488274,-4.951251773106634,-6.532671534713643,-8.910561847459647,2.8198972225455208,-4.828676376845593,-0.6805407179265757,33025,18.0
14.6328125,58.0,-2.121351022599015,-6.978634039243829,-0.8536548300042455,-4.1238133766388785,-4.311604465479206,-0.4645750730496587,5.634272672737566,-2.3275055975395276,-6.109868917175348,-7.617794799050429,-10.229683443560788,2.550467927538648,-5.70619061109457,-3.2895513324280614,33025,18.0
14.640625,58.0,-0.5911877252442679,-2.798250382871572,-3.7795785370050226,-1.659719627970702,-1.7361790713273848,3.685960111829999,9.505259916905246,6.198236151953893,3.423318291723376,0.3531286977248129,-0.5794337854309788,5.751823534308528,1.6767071152596174,3.643279947850857,33025,18.0
14.6484375,58.0,3.7954954545754163,2.1859465886598173,-2.067091095343585,1.040215396116409,4.713926541895802,7.612594247045692,8.876995071287212,10.301951675891814,10.47543179130858,7.191921904199376,7.202389854649482,2.179363278236721,6.243724888345355,8.69509656974823,33025,19.0
14.65625,58.0,4.837410687944512,3.179100262159949,0.5527577020534693,-0.25057315341739184,6.771165057122843,6.047658943240506,4.811635965265481,6.650313380480867,7.352081714969501,6.806927658496008,6.759891060445938,-7.576347459993954,4.22957812953203,5.014947719996542,33025,19.0
14.6640625,58.0,-0.2584353136289792,-1.0512840447237437,-0.39655225784630943,-6.16549838067462,-0.6529343877316904,-0.9834410049109437,-0.9635168532597191,-0.26570726442948,-1.9340237235767574,1.5367463281162514,2.1405808283411147,-12.891204708355303,-1.2670505415012059,-3.7568770254762285,33025,19.0
14.671875,58.0,-6.139116214051938,-6.009765584334943,-5.628469759420739,-11.758037194743338,-9.104597924928754,-9.047153274118202,-8.799925325307115,-7.52558209480182,-8.639371335342588,-2.5921068708846917,-0.7391533961965848,-9.58255966961876,-5.474705641646466,-9.626469890571244,33025,19.0
14.6796875,58.0,-6.618147620034151,-6.518173318206053,-11.689842420938419,-10.933132003266522,-9.458820719004692,-12.448903557280417,-15.086122857155743,-12.200231732451343,-9.008596102261066,-3.09817643836908,-1.1533983272983193,-6.3168845577305035,-5.278996548353959,-8.984082240624872,33025,20.0
14.6875,58.0,-2.931885814066561,-3.728791980696826,-12.994170112341052,-3.773764452861542,-5.296971769803648,-9.088984210388801,-13.841015039917167,-10.080984120616776,-5.938402154097375,-2.447682985730495,-1.7451329979383416,-9.075643629685175,-2.1983430884637016,-5.596393033371967,33025,20.0
14.6953125,58.0,-0.5226422708746554,-1.9123863718690757,-6.523186028348675,3.9003612261894887,-1.1783634092238913,-1.778212546273565,-5.093525086604643,-1.6070185577026876,-1.8106408601887551,-2.574833099624982,-1.540039218724985,-10.10284019986544,-0.10532249525473958,-3.620895733394221,33025,20.0
14.703125,58.0,-0.6722627553762237,-0.7386949400436436,2.751674374119702,7.372848074244246,4.194604847866174,4.300576125102694,4.476502687607393,6.421078386559188,3.4721128250189963,-2.4717789143374773,1.201970120366667,-2.637902868392544,-0.3897226122589359,-1.7672226460592526,33025,20.0
14.7109375,58.0,-0.13815216159429156,2.8855689681379744,6.783660016807858,6.540812822739767,7.11030029556845,4.986676484528246,8.410488430932062,6.935408328509908,6.4674658470240445,-1.651284743729903,1.0807828136537978,6.617682673878903,-1.9153356819240628,1.3576368358327073,33025,21.0
14.71875,58.0,2.3766490248611234,7.230500197672015,5.830402031564105,4.6671228571402565,2.3252333574963586,1.2669719212642718,6.305926535940586,0.4078085228061923,2.65105226730185,-1.0583868603389277,-5.594871395930738,11.433874607220588,-2.937843908282119,2.8673596927148424,33025,21.0
14.7265625,58.0,4.145644971357768,6.577292467499362,5.590160967316351,4.354800671268919,-3.974194705444731,-0.9942218975085666,3.297228376743078,-4.2873339771801255,-3.873589074957664,-0.7277878217197582,-9.930970895198826,15.570932948119264,-1.8406052336410141,2.1652436257127476,33025,21.0
14.734375,58.0,3.3774564705104524,0.6166122251214432,5.670905512950583,4.029800982757905,-3.2935476155504375,1.167902109344297,3.2689046489254565,-0.962849518298583,-4.7551584611499464,-0.4473414411368708,-4.248490147017662,18.92670950367001,0.7646157014696655,3.8895622351510752,33025,21.0
14.7421875,58.0,1.889806448198712,-3.4401269694430567,3.011333217673581,1.4428869882295743,1.2067720916709277,3.455101200899776,3.9870528561628333,4.715730863533011,-1.2507348588756457,-0.9394017442512137,3.4328498765169115,13.676260164575467,1.5283685161862053,8.210801936411187,33025,22.0
14.75,59.0,1.1826730514770531,-1.3490934429548957,0.6043228610030695,-1.0241750630195838,3.300042557273372,1.3928602611008074,1.168986368342388,4.116718301557384,-0.6062495137527151,-1.0619202385835536,3.1979266528101107,0.04065206544430566,-0.13923515574289524,7.744621382844798,33025,22.0
14.7578125,59.0,0.667598389612138,2.818369044673716,1.8478074863394909,-0.022292661224653898,4.189481610315013,-1.6336680608724947,-3.6648073480209433,-0.5879781921761094,-0.5651795334761545,2.6306388658085638,0.10838287334688346,-11.182418970466756,0.9654823069180054,0.5824339394647069,33025,22.0
14.765625,59.0,0.3110821968474369,4.5458972836877365,3.6408506833835617,2.2955989234112195,6.218450281782225,0.7811461720369408,-4.0124448752563495,-0.9092910003622592,5.761531221455186,8.933166870399688,3.801582603107448,-13.559947028592106,7.175711649254978,-4.872891669687462,33025,22.0
14.7734375,59.0,-0.251435421623313,3.3101393363094473,1.3844044533438762,0.394430871958491,6.778105623709962,6.233736156271505,0.8802677871871509,2.6706869649932514,11.84585395336481,9.441622390990759,9.769647100183178,-11.26560497282621,10.386503395914303,-4.049813918794271,33025,23.0
14.78125,59.0,-2.785071597732255,-1.1714100291021623,-4.505774915408338,-6.544945174692103,2.3232018251090665,5.433499787662669,3.1334252645138747,1.771633314206639,5.758606024592126,0.6249948735928683,6.0782887078929235,-10.181223084025575,2.734790201908382,-2.989594284290064,33025,23.0
14.7890625,59.0,-6.016247937703454,-7.670114010220175,-8.918177019743808,-11.81325300749279,-6.201110534167768,-2.5978215083284084,-1.470694444647492,-3.8648987285892815,-6.3509827684264195,-7.587430796677651,-4.867244785659992,-8.787102478034015,-8.745013174190419,-6.05221248321196,33025,23.0
14.796875,59.0,-5.3926527619999405,-10.464219539292202,-7.638123140120783,-9.212614202437408,-12.445906543967553,-8.304539757126278,-6.751053283609423,-5.353954603571424,-8.333992897712946,-5.79918339377258,-8.59023161477873,-2.1730182452517965,-10.162751614914342,-7.755580150226734,33025,23.0
14.8046875,59.0,-0.29930396174714247,-5.628366431447645,-2.1229708083312886,-1.305229587086231,-10.351233572262771,-5.899348674623212,-5.424956633784504,-0.3435761998762388,-0.4141272066281516,0.4939866911555697,-1.8753381855918718,7.062544590527921,-1.0391494263965058,-1.554367503051111,33025,24.0
14.8125,59.0,4.804577961773617,2.923419247974195,3.146444167728802,4.9278480599149646,-1.383469399522454,0.8884107409109134,2.3446920042952684,4.131343142533439,4.733829991066813,2.1124560278533977,4.0517973969359105,11.356368151174465,6.1615632950684756,9.395258761138265,33025,24.0
14.8203125,59.0,6.546987804697082,8.467066104617018,5.419799184746012,7.072133170103754,6.795666299446282,5.767115963555952,9.360243043029797,3.3429340154726788,2.7526976741467877,0.2851231120636015,2.8571353182884565,9.401778694382202,4.965378091113379,14.279740317251097,33025,24.0
14.828125,59.0,4.07246293195638,8.627615153074885,3.5108228665699954,7.262385782761541,8.12770141962929,4.4777516812650475,6.582634538031698,-1.4952650617262861,-2.6893051258808782,-1.095797067451457,-0.7563028770014029,3.9571900102864532,0.5936966778710513,7.159596955484687,33025,24.0
14.8359375,59.0,-1.8524864231748523,5.077497952265688,-1.304435976423207,6.628674964762837,3.1999596949374194,-2.485645300084599,-5.862727756638492,-6.919671053323839,-8.33096164888957,-3.507335850851021,-2.7476852877080944,-3.6803169538131613,-2.5279793322831807,-5.365638215407969,33025,25.0
14.84375,59.0,-6.841989797182009,0.20595175606347027,-3.95743343496693,3.8503726518350305,-2.557543512517711,-7.901885146583794,-13.928436845333422,-8.00269779457247,-9.7873308547952,-6.156570719295971,-4.315684503314344,-8.075087452118709,-6.013508607696963,-12.353982901734398,33025,25.0
14.8515625,59.0,-6.095343512097145,-3.8908295876539682,-1.8778848972338267,-1.2453312724686754,-5.7246741200866325,-5.896329311726262,-7.1067379472973755,-2.19788186810581,-4.047557180258778,-3.9684840007349322,-5.406521986874367,-3.24307540285524,-8.737051692984664,-10.680580249294565,33025,25.0
14.859375,59.0,-0.8884329771470192,-5.701269838814682,0.6739949532181697,-5.557374327131029,-6.237756249860496,-0.7447745994373065,4.843382404907061,5.030561906528675,3.736776363875805,2.0592632809938465,-3.1969585021789584,4.541519817055885,-5.515833519400573,-4.254743776179453,33025,25.0
14.8671875,59.0,3.697812271073218,-4.796314825329617,0.3868406592217326,-6.153300076429048,-1.9975385158164727,1.158768884872444,7.003814778528309,6.228452323474258,6.115882347496125,4.63114103498792,2.1041313517278297,5.751205151127408,2.466331055580426,2.6457580269707677,33025,26.0
14.875,59.0,5.332480700379165,-2.096271682213583,0.7535496464418401,-3.6803598048420554,7.058157991727356,2.1114497255532996,2.249515558212238,3.3639013333173864,4.670092499187433,2.8300815452839316,6.254886980186299,4.0220901747743625,7.549180810688782,6.5515684879785,33025,26.0
14.8828125,59.0,4.5043446436203,-0.015117847403473661,4.279098850373359,-0.7126265192112129,11.359383024267302,5.804247876483018,2.800371685925498,3.966011051687758,6.147623400332932,3.361748639303329,6.687870535602059,5.271291043549439,7.055044523234486,6.148092899735971,33025,26.0
14.890625,59.0,1.9840754175348394,-0.17020801745631786,5.8783388433189,0.9857298279546995,3.5267167891860822,7.948628440911136,8.436596992211292,7.466394003595951,9.588486526664923,7.119562965397932,5.086623929653584,4.1621045833213515,4.854135711426906,4.517373770961555,33025,26.0
14.8984375,59.0,-0.7620219221842461,-0.5925979191059838,1.3655240838839688,1.2062600821076614,-6.757541783400555,4.214093858337975,9.112504331852179,6.631305190013123,8.033457115956736,6.644647944170146,3.613126222555053,-3.43227935357622,3.5488894297131566,4.559401547999897,33025,27.0
14.90625,59.0,-2.011777969490211,1.3922931159244314,-3.8081922639963324,1.1576044195314807,-5.823393204668747,-1.4168605517791804,1.8850969387497685,0.21879346294711866,0.545098121114151,-0.6927048270995897,1.0688145866695038,-10.669247168997643,2.018410440868763,4.121282844573642,33025,27.0
14.9140625,59.0,-1.6751813274041893,4.790464253515637,-2.73484097786465,2.018583484267893,2.3301669194968753,-3.771646820985353,-7.125302670508773,-7.146801001686413,-8.310416266917088,-8.040379483834585,-4.410828403095792,-11.340031162016004,-1.8374184358138166,0.533733843845809,33025,27.0
14.921875,59.0,-0.8719830753442324,6.516428608806493,1.8434208345909582,2.946932036174573,3.5651753638924646,-3.6550277894263132,-11.731332701087226,-12.35839723814459,-14.812620083154755,-9.033460555124265,-8.999869484879213,-8.074934238671986,-6.610795279336386,-3.539908461128448,33025,27.0
14.9296875,59.0,-0.490881942018774,4.793731435128024,2.8856619213600823,1.933887332975985,-3.0770495546046135,-3.3934839381797843,-9.227499849513379,-11.963098415972539,-13.919669393404803,-4.405424363727377,-6.175701375363502,-5.382370137975144,-6.163818437525421,-3.7109410582713593,33025,28.0
14.9375,59.0,-0.7538363606388856,0.037591336102053674,-0.47696135572108744,-0.9911642255496105,-6.497365169290688,-2.5315997211525882,-1.7257036719171452,-3.5327440244409445,-3.3483448074354243,0.840342924693573,1.2626143431381536,-2.7826045928340335,0.4494695947559393,-1.539155011923313,33025,28.0
14.9453125,59.0,-1.4184993847101026,-5.267039771126633,-4.633084773639027,-3.17309451498366,-2.551751259188052,-0.5024717630307407,3.622560487591258,5.557224286737778,7.137227592577517,2.3363782512768694,2.462648905741702,2.415783389280932,3.791558882893,-3.1208159714513073,33025,28.0
14.953125,59.0,-2.174557938220147,-7.810788748330296,-7.370472414842638,-2.3810936778218093,3.7476442375900945,1.6594570003797742,2.5890178071015413,5.06650360257629,6.714230458839765,0.07428866274663903,-3.4774905847399964,9.659133731128478,-1.1079229586083272,-8.442196085173862,33025,28.0
14.9609375,59.0,-2.2809190376182613,-5.3037011253328785,-7.093400104030039,0.8305291290898822,7.960594288444838,3.0262229820680346,-0.5677372579160505,-1.7021298044627144,0.37537319414651904,-1.5908339886293703,-4.201293059603259,15.174360096838683,-5.701582159591439,-9.149271314343409,33025,29.0
14.96875,59.0,-0.7681749732939096,1.3481525182444045,-2.488567901981966,3.491672648056692,7.483202834087578,3.19499129503005,-0.5468038714916901,-3.6162510935420755,-0.9935463580885511,0.21423316918358637,4.3500169531756825,14.633645951121508,-2.804173587113951,-2.1258987900160804,33025,29.0
14.9765625,59.0,1.5920283022081065,6.091097596169547,3.4268317535142216,2.517596364983092,1.8053549328862744,1.6041938998824037,1.5829532520308618,0.6702065684714995,1.8731665724805708,2.7885702616031125,8.997210742504507,6.228596083110602,2.056768231316809,3.8631083152825596,33025,29.0
14.984375,59.0,2.2786500011818447,2.542964348900341,5.278469720068571,-1.8001254877077173,-4.322097509291311,-1.8710903343411331,2.1928817612619014,5.429709056911619,3.4455692023243643,2.96479104561287,2.0376198275201176,-5.012957551709775,1.9375513346611797,3.073260826511003,33025,29.0
14.9921875,59.0,0.6606527802968145,-5.949383710635729,3.0687924924531984,-5.067279711628288,-6.353560582925695,-5.5259429144485495,1.3743522070981982,9.260206119175876,4.856969356924992,2.2365151555685117,-4.943318531071526,-10.410135283943461,-0.2129661413506625,2.335231682770811,33025,30.0
15.0,60.0,-0.27709795539229276,-8.01085563559316,1.864393028207175,-4.0578368768563,-6.448284973845688,-5.8091553354994545,1.5660375679899374,10.857519114706733,6.396707792541221,2.234485512648291,-2.11027466138421,-8.359359741511582,0.8276135434090719,6.70512367277685,33025,30.0
15.0078125,60.0,2.170396632341749,0.004922628395434003,4.382752142485728,-0.86747884126099,-6.6130144177352435,-0.8691639543267513,2.4265509756476717,5.701811389344712,3.492773101357713,1.3686327763713422,3.3931752134770363,-4.1944257352428735,3.420731751597984,10.10468051089542,33025,30.0
15.015625,60.0,6.047404715661685,8.331897617765222,7.90486067665492,1.1905976891833774,-2.971237737325282,5.604289909760894,1.4015511635721651,-3.3150605353287546,-1.949427326059734,0.053076629937919506,3.8566153356929505,0.20183794858125736,4.2063658043852,7.866820000574123,33025,30.0
15.0234375,60.0,6.124016238879932,7.827792011336513,6.937676856848896,2.004168342916671,4.4196503264442555,7.121318947519711,-1.142579918260438,-6.2763438818797965,-2.5933839181981426,0.6007072053273248,2.218453138999692,5.237201348612402,3.7249289571413726,3.628740227927395,33025,31.0
15.03125,60.0,0.4721167204265839,1.3750421202490344,-0.5593797884182266,2.0734858844543425,6.73683204526435,2.0597474716003177,-2.176838694818443,-3.1740748978856175,-0.7190180835923741,0.31213329331406214,0.5765007225467542,5.848358723905349,2.4602741585736965,-0.20961304329748032,33025,31.0
15.0390625,60.0,-5.762008361582204,-2.092478893454455,-8.536867855421178,0.9746725786737898,0.6601358001046549,-3.749400791484632,-1.4539390914734724,-4.800510476821344,-5.119882582051005,-4.476888098348169,-3.5252750997031512,-1.0824661409171625,-0.9778894512700163,-5.463960618542998,33025,31.0
15.046875,60.0,-6.685214571219518,0.7859689480183363,-9.205633101608754,0.3452099126827477,-3.731032777169716,-3.8806393628659492,-1.44458419528722,-12.440637829731415,-13.507588892932546,-8.872576230449525,-7.397203083502873,-7.274479963173377,-5.1767280875527035,-10.773544931992532,33025,31.0
15.0546875,60.0,-3.8082262326440173,4.4978406981602745,-3.6154338242470345,2.223738446159956,2.119639798797607,0.8340268367590369,-2.2828220127923657,-13.342582573182995,-13.925932818027832,-5.775330788973207,-5.276785680520746,-5.12260860651638,-6.320623417362228,-11.596954643608655,33025,32.0
15.0625,60.0,-2.436751919789856,1.9130348970778925,0.2069231452459377,4.023609184275998,11.475537583770333,4.000710606224828,-1.929611345588313,-2.633349692996262,-3.5030700142950337,1.3841798564676395,0.5105830018893158,-1.1665441139977446,-4.3015994829425495,-7.568452856383388,33025,32.0
15.0703125,60.0,-2.8749646960303608,-5.821966467722319,-1.5063868276009629,1.6138989795593943,10.813779612071883,2.0662873395279036,-0.04542935134659842,7.092856376598377,6.897469693071699,3.51484664093816,2.41347364389064,-3.921051309232425,-1.9058206562147006,-2.6753718610802792,33025,32.0
15.078125,60.0,-1.5735043451984154,-9.703372095523846,-3.878827302803458,-3.2034686716017973,-1.465074089419545,-1.8991756939464182,2.3031049898506524,6.823637584890008,8.83178901745866,0.5022973153080841,0.31576212507610535,-8.25341928936713,0.9043200668625246,1.508916344959033,33025,32.0
15.0859375,60.0,1.671579246966104,-4.88863286600548,-1.0350795518026956,-4.664989193567919,-11.664572548802212,-2.8298472822942387,4.259669816260185,4.626074315168779,6.9549905805588565,0.49863427354989653,0.9069539642645168,-4.76136007020969,4.603098145717041,6.0471801353644565,33025,33.0
15.09375,60.0,4.12915979444746,2.279184175544401,4.813492232498135,-1.8208433116283373,-8.999678808971169,-0.28397524262754814,4.571609798122154,8.510194387700508,8.408358925871141,5.596898222689006,5.1103356555734365,4.857302718212779,5.738575369231228,9.234747839448318,33025,33.0
15.1015625,60.0,5.361701059244979,3.260444480327209,6.557214520558929,0.5649555948833438,0.2333445497780673,2.0402156385671333,3.377488025153454,13.013384013094765,10.86233291154926,8.61760530140748,6.523049554162526,12.130104762938132,2.846151635202574,9.0058686354662,33025,33.0
15.109375,60.0,5.958647339042614,-0.8260055168044147,3.189857927418501,-0.2758233628928224,3.5999263487040025,2.6311712738944237,3.2141714835174042,11.16126294374186,9.06935759620174,5.832273695138042,2.890997699656694,13.972083255731278,0.8719893210245431,7.958570996158244,33025,33.0
15.1171875,60.0,4.175175929855499,-2.330973774295785,0.24540336956512476,-1.7844338334101195,-0.2094805736804517,2.1755507635998015,2.7406844269187474,4.406613750000446,4.489010609792217,2.1235429742964698,-0.9485172897905869,12.85517845016983,2.2660257121962815,7.584660666324268,33025,34.0
15.125,60.0,-0.6609246258908854,1.109621840801978,0.054450205088087955,-1.0507324277079704,-3.3525965402921116,-1.2110630583047879,-4.055526720815152,-4.034933244731093,-0.0824096640032792,0.3321362656152189,-2.283176654364155,8.894267118741524,1.125361970666276,3.0098914953595255,33025,34.0
15.1328125,60.0,-4.942717248117901,4.952640451002978,-0.11175791193980444,1.2328503329379572,-2.0369338906086227,-7.916795860597816,-15.244451930518167,-13.298579682296051,-7.058108217498926,-3.4436701821983604,-3.4700083123506857,-0.6771107284547355,-6.15833097855095,-8.282503002264448,33025,34.0
15.140625,60.0,-5.199189546608906,5.731757523128067,-0.817405791400347,3.0053547437297397,0.26620252948717393,-11.099179898722397,-18.470766170949304,-20.445225621063813,-17.171245796831812,-10.246763547645429,-5.088414751187216,-12.166811665893434,-11.733947105657037,-18.406242888964627,33025,34.0
15.1484375,60.0,-2.490986454784391,4.112222998562203,0.3323299784601801,3.6444619878890165,0.5189156630443961,-4.87515411376711,-8.192618826973558,-19.934403033262583,-22.860915384684304,-13.714343173095273,-4.03522781452989,-14.151870222667455,-6.852161212936437,-16.947503782906836,33025,35.0
15.15625,60.0,-0.09117071021948675,0.9860166509612469,1.9244278352168465,2.7968678474442186,0.139669330140336,5.614473000193101,6.592405832080118,-9.36278289303361,-16.619227183745622,-9.149308909104036,-0.0764355939534056,-3.835784586251094,3.5754993167875,-4.386182805425065,33025,35.0
15.1640625,60.0,0.3541056164989129,-3.66182043733653,-0.6840619000629715,-0.4158276864444872,0.5248306846089719,10.633632022541832,15.199093018280493,5.870489409300376,-2.0207924964316675,-0.36901919814721396,2.4448764149138498,4.986503654790255,7.775724373857145,7.195794261955768,33025,35.0
15.171875,60.0,-0.25334418275019743,-6.974389457295814,-5.824051093151084,-4.018396586671727,0.5246490796607475,8.07608256645183,14.919251193113851,15.694464688467335,10.856127374925023,6.362943431570059,2.44903689798376,1.6682564749899456,5.239442918492784,8.61534721977064,33025,35.0
15.1796875,60.0,0.13667708265664658,-4.510659641098712,-5.312174850982373,-3.1167743204648275,0.4274603113101989,2.9074200613073486,8.561351479463042,15.485034978907436,17.203352675020298,9.897205593660757,3.8219985032795734,-5.450792283591397,4.821899767235507,4.689214798477451,33025,36.0
15.1875,60.0,1.6952515254334628,1.774598902672409,1.78917243590044,1.8255336641503987,2.604711518137819,-1.1553575722239628,0.5631627225354947,9.790078909187528,16.978630167922233,10.885667005220597,4.890303666777982,-5.146671376503988,6.514743592396286,4.2320076765160906,33025,36.0
15.1953125,60.0,1.970484925287053,4.032744604212539,4.9906900018763025,2.6423262489524717,5.670509704380422,-3.535687893790964,-5.173192970967975,3.6561660584253417,9.053809205589133,6.497844604264287,-2.3151416544926775,-2.0833601531287513,0.8604961094267907,4.279930794008976,33025,36.0
15.203125,60.0,-0.5560087070988828,0.050622848626858286,-1.5930086199561373,-3.8341635385745008,4.429219268557617,-3.7919498114719374,-6.611171284152448,-2.4685504701876937,-3.3740124193809464,-3.5346723061545333,-14.988054155688076,-5.6154989773690005,-11.936862416621423,-2.8358639654115905,33025,36.0
15.2109375,60.0,-3.854676835343952,-3.7266694861742025,-8.541936912982223,-8.585527167536824,-1.2976553558966515,-1.8438443068853587,-3.884948726384806,-6.368268858511769,-8.760149574042373,-10.053515109543156,-15.903765947345676,-9.631251021383463,-16.809453125480886,-10.881039471497274,33025,37.0
15.21875,60.0,-3.8290528518445086,-2.586484515582896,-4.721399499149044,-3.7329697720343233,-5.079539087044992,0.8671723538280247,0.5097196799701322,-2.961182531442958,-1.202347994204743,-4.44819184927519,1.9640512353603299,-0.2809278799833237,-4.090041385447776,-5.464428078539953,33025,37.0
15.2265625,60.0,1.326875299710764,0.8273524689306271,5.714423038411908,4.998971209669008,-3.995372518818442,2.9733102788850516,3.466591694784043,5.50369690849557,8.020314877528747,6.484894944461487,20.15688438291552,18.08714914163764,13.417693128140172,11.140322553283582,33025,37.0
15.234375,60.0,7.178816333001407,2.3781580776721967,9.861606809140724,6.9423434435371405,-2.2131048563777966,3.57552174423067,3.6929965726334046,7.904134019457231,4.926293445344498,7.285867103859289,17.33136610780734,23.17360674619046,14.207228848751058,17.950273461647285,33025,37.0
15.2421875,60.0,6.558268476702949,1.8667927026082367,4.960990150232192,1.7859783878216717,-1.9556692097585113,1.334787393810231,0.9301531935684011,-0.7452990668235913,-7.0752845084443265,-4.086146409440232,-2.1867158927741315,6.520314406186301,-2.533798332539206,4.293930768835139,33025,38.0
15.25,61.0,-0.3225861311091478,1.3552687633657996,-0.05725807503063152,-0.9803728607488722,0.6455941160767935,-3.095854307610935,-4.118459443927549,-10.99241262239157,-13.133153655518996,-12.595243081410999,-14.955683354295118,-13.116506807252591,-14.815021461526541,-13.220969701874566,33025,38.0
15.2578125,61.0,-4.786538572932358,1.8238486579722917,0.8403094219982563,3.5096596680015892,6.535739917865811,-5.672291711835172,-7.855585867469358,-12.589112855979394,-8.456523086791691,-7.504626295458664,-8.03774647062609,-16.43235412047565,-8.134637244601706,-13.96999596686318,33025,38.0
15.265625,61.0,-2.388434851911569,2.595586391300529,4.04934003926256,8.058812896010878,7.947325305287563,-4.231768328892684,-6.770793430408943,-7.592601643313515,-2.1402660331205965,4.011194267975782,8.332813680085096,-6.007554725793852,7.426311916403776,-1.548836620809908,33025,38.0
15.2734375,61.0,0.847404427899491,1.6046962532456064,2.963351168399768,3.9210405720729256,-0.9045175227436033,-1.8982204905144613,-2.280545346003052,-1.9777130938170586,-0.5916349662148832,10.077169144322667,16.612524488478343,4.944393981654031,15.518592717033428,6.214264822716771,33025,39.0
15.28125,61.0,-0.7778081941059298,-2.7708536313686523,-3.8123148114348453,-6.269562841059781,-12.155927992768497,-1.2318806725227347,1.7212895195931566,4.8766689559407865,1.8537688624605693,10.13347141219414,12.525413754590843,9.71857146376719,13.692371013293169,4.669235907310522,33025,39.0
15.2890625,61.0,-3.7403926481531613,-7.408465408336042,-10.325011539269042,-11.912426996816635,-12.557217572980605,0.0451460044066323,3.926897848929329,12.705149835268017,10.943441480918096,9.412200803258969,4.785327932311205,8.092877425916342,8.222445746343794,2.7139297033349834,33025,39.0
15.296875,61.0,-2.401694897305134,-5.945898378289044,-9.189667610721003,-7.4723978276947065,-1.0435906696700528,3.1468525949982933,4.530037776800484,13.136057802223988,18.242048155498026,6.423502123612607,-1.7832025749508063,2.0002462068127613,1.062241186263151,3.42223135671874,33025,39.0
15.3046875,61.0,1.6234384187435609,2.1642127065563272,-1.202829805020059,2.203229635151061,10.151217560940395,4.522228981961092,2.61465813403332,0.686324591976458,9.82709786605308,-3.0493642409804664,-11.492095307389093,-3.4719666194390157,-8.790194427220655,0.5739258639023888,33025,40.0
15.3125,61.0,2.9137151988006025,8.679437572841621,4.304815896040296,7.5820357931197435,10.791208067203755,2.7292625475462273,-0.8228744613201826,-14.815035349371541,-10.709240840611514,-14.661702658948997,-23.761352223479392,-3.729688752714438,-17.641029765422672,-7.631754751811215,33025,40.0
15.3203125,61.0,0.3437043770063468,5.670446959351736,1.9558043266597593,4.204538297974736,3.274014776657097,1.8072766725732663,-0.9139486916825632,-16.368284116407636,-21.96378684003686,-18.960339053366965,-27.717913998826347,-2.8378278184661383,-19.708604203622713,-13.756716165601446,33025,40.0
15.328125,61.0,-2.8114799825676613,-3.9783421591234145,-2.0460381517414277,-2.6059714676605665,-2.418571475539281,3.5951993684710004,3.889615846610809,-1.9192631518627081,-13.863416155967272,-14.105570541668868,-17.78347957797243,-7.900753930077329,-14.685033956358282,-11.827422129229163,33025,40.0
15.3359375,61.0,-3.0899471510887366,-8.399341484517933,0.18090811023442654,-4.387540118573966,-2.35786629237856,3.502577370499978,6.755718150685567,10.646185871842874,-1.3093234603597352,-6.34422107841246,-2.063782455696611,-13.335227879902902,-6.450766253231961,-4.189757546086128,33025,41.0
15.34375,61.0,0.9090166909211916,-1.9321963994449618,6.2985317761124975,-0.04312106747016742,-2.3517407668399954,-1.758009178599906,2.5969557054790045,9.150129789692343,1.9840048135316835,0.9792224941191137,10.899027722984371,-5.847814565204047,3.2072823216748247,5.022837861483325,33025,41.0
15.3515625,61.0,7.131063756162618,6.735828826110321,8.552029656132788,4.324974693835358,-4.281567314006196,-6.961872452099101,-2.1028281260693547,4.907486690818942,4.09499757528009,9.781863748581713,21.324771004725207,12.631562518661838,13.941272069188983,14.693825295766658,33025,41.0
15.359375,61.0,10.356876134575202,7.496148582346379,5.3289790841445495,4.564892186354015,-0.638415056324618,-4.940205254791664,0.07111910656404064,9.876047357136429,14.42191448271241,18.712784955833342,29.692471683566012,23.569150783894813,22.10299366331293,21.274222715126314,33025,41.0
15.3671875,61.0,6.5289605461347975,1.9433809000907303,0.39978924532512394,1.8645524682356864,7.819233296684857,1.4308224178083435,3.1445420368412584,14.020225424451183,22.927668650687778,21.549476746857437,30.404258982936696,15.412067193197615,22.369495558194288,17.839672127165016,33025,42.0
15.375,61.0,-2.4604952315338267,-2.8228771323453543,-4.651423588838767,-1.8633945914076122,7.3312542972467725,2.592405100234501,-2.944416613603039,4.147585511448241,16.256344611189775,15.117442300813792,18.51113416885123,-3.829953196039014,13.521067648573862,4.041547075401581,33025,42.0
15.3828125,61.0,-9.98167755999252,-4.693317565639788,-9.894412428444426,-5.7912197666738905,-4.19085091457103,-2.1950734053416454,-13.317172679211538,-13.064756990285147,-1.9058369571958451,2.5877659829472037,-2.4353390854284243,-18.209164589477197,-0.33934021392022373,-10.181509619553296,33025,42.0
15.390625,61.0,-11.284371008638487,-5.358371382616852,-12.580059564405985,-7.4960041701142615,-10.596725656056762,-4.093292250643913,-13.186780853625251,-22.235130057354652,-17.57877925237632,-9.870363913574195,-20.94232684405705,-20.341091945299652,-12.485485526946363,-15.39850953899547,33025,42.0
15.3984375,61.0,-7.503075570978268,-4.982471914270491,-9.320777538015037,-4.475596241194182,-5.199357777938658,-0.10516597354272506,-0.9202694185724596,-18.21251740985933,-21.31035952162354,-16.332888600312188,-26.25926172875718,-13.568988008243394,-16.978257849762684,-12.236690190553261,33025,43.0
15.40625,61.0,-2.7696576840471465,-2.418236974125108,-1.1579778203842324,1.0233715073096477,0.7710853766323851,3.263397614318663,8.759126912230613,-6.285113444079954,-13.106827478302392,-14.799624585518316,-18.49722064070977,-2.8852391962217467,-13.260750409403585,-7.518418896065981,33025,43.0
15.4140625,61.0,1.0109420596841971,1.5540325856425596,7.270304729767787,4.330458335348695,2.4786048176677866,2.360608212203175,6.4204980546588075,4.8312113825997045,-2.0007795259810734,-9.289413303669164,-7.814346573721352,8.13738350368179,-6.761998338702583,-5.00085863172113,33025,43.0
15.421875,61.0,4.880904234219727,4.606235488860364,12.803171160774298,5.3453199295941545,6.202283290801546,0.6867861988575896,-0.8653558408469024,9.03471443198957,1.8843966805563923,-4.3078763913346165,-1.400247886197178,15.458372015271294,-1.7881006653941824,-2.6117315701985007,33025,43.0
15.4296875,61.0,8.775810559573813,6.007892149326622,14.758392979108478,6.653572279522535,9.020825080045455,0.6498632487693499,-2.168933658209852,8.73453697771562,0.6676043519226198,1.1123885951315629,2.5605413186847272,17.634843452136295,2.5470917982628407,2.433157193618996,33025,44.0
15.4375,61.0,9.242070200784767,5.523931812236583,11.235890954836805,6.240969104663833,2.2050565815646337,0.7641071722373027,4.049111368308019,10.198001073476703,4.844165285881729,7.81829912949722,5.279062690364142,13.83060625758307,6.314053987514086,7.692029168266458,33025,44.0
15.4453125,61.0,3.4376177673750874,0.9953707145570405,0.4305843973020984,0.3702906910237971,-8.623620088794453,0.12100221349905382,9.800062977649361,10.685359478892579,12.344086737673877,9.438671182092449,2.8433418302401208,0.32561196743812104,5.050443855807046,7.499872526559628,33025,44.0
15.453125,61.0,-4.868095458181472,-6.500788343545736,-11.89908691418914,-7.580849888364924,-11.470778922990377,-1.2226133674336381,5.882480101740271,1.3914053811391938,8.707373493606923,1.6442384219879074,-3.2227360035441137,-16.312690420710922,-2.463112517016924,1.9813531892789626,33025,44.0
15.4609375,61.0,-7.391274801739286,-8.847853182845583,-14.665578769629562,-9.275022038101937,-6.34423646805854,-2.9985821195114113,-6.384485033067563,-14.363461091747808,-6.230220278934638,-6.369475579265767,-3.4929801732681653,-16.615424442987575,-7.802184718571496,-0.9776821343581901,33025,45.0
15.46875,61.0,-2.0098354062793504,-1.249168417931898,-6.054850412001272,-2.7010089567861257,1.0387814718023236,-2.6600408282975962,-13.377390502164914,-19.885094418658625,-13.345371143429631,-3.549619085208761,4.6717554625736,1.6168855250368637,-2.335291342857147,3.1770782165752536,33025,45.0
15.4765625,61.0,3.631869087608166,8.468785059040982,3.2975647933170222,4.810507130419452,7.9806095015665335,1.319059032511845,-6.378884673127118,-7.17206468410798,-3.635208536244761,5.327325603726663,11.779176114398382,14.586533661381935,8.930436451122887,7.79233199472651,33025,45.0
15.484375,61.0,2.9968879757503117,9.79277410506208,5.405824873981288,6.3275969331591995,10.544368117807323,4.6418108458937155,5.5124373771190704,11.008858680466886,8.679015248518041,7.909786338281677,10.77448827676426,9.458709690541568,12.606410320842272,4.371734735800544,33025,45.0
15.4921875,61.0,-0.9428437355815618,3.1585421470889656,2.7348703836723445,2.9764185531226843,6.573808445034942,2.9650481734921783,8.76867919965565,17.21611236293289,9.870116539507023,3.2782887472499596,5.604508710687284,-0.675167185701099,5.769401190330967,-4.378540182020743,33025,46.0
15.5,62.0,-2.7051475882817755,-3.1721311701154917,-0.5870650992112161,-0.41114601438579257,0.5187473713362607,-1.3553105613137575,3.3450549952557935,9.321132949342882,3.9501431543512524,-0.5792098708930382,1.2683831771639547,-5.444555857265442,-1.948652712700408,-8.818663902409853,33025,46.0
15.5078125,62.0,-2.6224645277609824,-4.558897972791229,-4.055862782062135,-2.0261922200794373,-3.542997472393594,-3.81130775490125,-1.6094420619816958,-1.7953212358189177,-0.37892652703307306,-1.279740987622887,-3.7600698727689803,-8.948036750859899,-5.077815803416485,-7.150499880250834,33025,46.0
15.515625,62.0,-3.025977778877902,-3.27543004605387,-6.089395806652149,-2.602950283529367,-5.179870566347802,-2.858727611246465,-1.624967190747924,-7.087103027876424,-2.9237998189071703,-2.846838374826163,-10.838140713577488,-12.39082046073817,-7.093621374763131,-6.030477270717341,33025,46.0
15.5234375,62.0,-2.5463327166526994,-2.7582165477826237,-3.3601453184398338,-2.5179466122057477,-3.4473915437950353,0.8473960238210481,0.39173788054732483,-5.308088776565938,-5.621155431300124,-6.260558836615658,-14.868461388629456,-9.927708745186749,-8.075928251230437,-6.69090389982199,33025,47.0
15.53125,62.0,1.0721436721857032,-2.399684981322224,3.6506152785254073,-1.5720582994005952,0.8681559818064386,3.7729616501284085,0.16513715464112977,-0.6780929779151563,-5.998854596155226,-6.79066273576754,-9.55983634290996,-0.41629641606560597,-3.0943809215570894,-2.11948275660923,33025,47.0
15.5390625,62.0,5.777451803364713,-0.2651499945435063,9.371700088193862,0.03825521597374859,2.4976742913927126,1.8646150758803515,-2.178907405066539,1.155240467876581,-2.369063595984855,-1.0270254970081965,3.1648704962805425,9.169306678347453,5.519455630244636,8.715847632059806,33025,47.0
15.546875,62.0,6.435807937264116,1.6939082548085196,8.38541421250413,1.0605251961286513,-1.8760033829527032,-2.050031335809848,-2.2782519425957304,-0.398327947715984,2.8882105867168804,6.673654909730928,13.073269234749034,10.707921174004326,8.635402097666457,15.158530754867655,33025,47.0
15.5546875,62.0,1.7799397380751998,0.5068205813437316,1.390156260200584,0.2858354329148938,-7.505012223888997,-1.317792360795309,1.0932090572906645,0.04990061556435421,7.259327406306099,8.95227149981055,13.350872442177874,4.126083178390033,4.7239838260228595,9.638433424258565,33025,48.0
15.5625,62.0,-3.1378028249628045,-1.8976603245771315,-4.36741996101685,-1.1442884674403473,-6.486167951489321,2.993893935361669,3.1700510847515204,4.446695356520294,9.52604603345057,5.789775280358668,7.977591887938075,-0.695217631880169,1.6142963050258032,-0.5700222449795547,33025,48.0
15.5703125,62.0,-3.82653366620616,-1.5714971252730265,-3.0905792668515346,-0.8033287984624593,1.1001352251294918,3.4306386744688098,1.009106444428511,6.751452677351395,7.6633872810923265,2.8657610526630037,3.4925758630437542,3.003587590677796,2.7423305250671888,-3.774525371892125,33025,48.0
15.578125,62.0,-1.76016971792275,0.9466179651476949,1.385693240362869,1.1227112654068208,6.224434544756264,-1.6648553179931156,-2.2521567858071876,1.4051124555964662,0.1848461028511963,0.7767575637838036,-0.08105638322598452,7.342293533353356,2.2574705677106266,-0.5040180390097646,33025,48.0
15.5859375,62.0,-0.3790228823142314,2.193391024267953,0.6755199806584358,2.0741237010361004,4.36631594715854,-5.816395416937183,-3.187257476819312,-8.144796529497754,-9.861064033055257,-4.244646321904483,-5.665263083770256,1.8008926433623458,-4.0059755332111,-1.2432246372479057,33025,49.0
15.59375,62.0,-0.08853113215900521,1.626846269817321,-4.967661088890964,1.3932570378112246,1.9818659693382017,-4.105503420374831,-2.2963580970653084,-12.484850079379669,-15.573930343204125,-10.289526589373551,-12.043984556900796,-8.680357787198503,-10.916016068593535,-8.628836518765027,33025,49.0
15.6015625,62.0,0.17680768557650595,1.405217685409582,-6.899940450257773,0.8378108390733843,4.119560384484529,0.6650867695658746,-1.4754627400457423,-7.911113949004218,-13.208782872498688,-10.791852500808744,-14.020364201576072,-10.931564402540616,-11.126407284688554,-11.950033386313507,33025,49.0
15.609375,62.0,0.4577167971742284,1.9590433837309575,-2.1880199198458996,0.9076294837860246,5.577813431653766,3.0405565652766313,-0.5364119801112537,-1.0458777112483943,-6.1797310920760395,-4.969232806165834,-8.858841884140105,-3.7816179336263502,-4.947981725069255,-3.945199928070778,33025,49.0
15.6171875,62.0,0.9891711644142731,1.734338139203885,2.572847367342945,0.26113268213968865,1.0953591570672927,2.159282567078776,1.8833971744751778,2.090163275165537,0.600141791839846,0.951142992336969,-0.9355929888764649,2.588163887204459,0.9914374736552531,6.987465136092382,33025,50.0
15.625,62.0,2.0863741249773824,0.26209251086753227,2.748476207265753,-1.1010750337148494,-5.092795551655698,0.9134268104998142,4.044815287160347,3.833287345451538,5.965655161400122,2.8443769781154913,3.6471914914718724,3.5386438517155767,3.0436300384149177,9.11638199393228,33025,50.0
15.6328125,62.0,1.9105059359806233,-1.452380976168044,1.399468243402211,-1.3685374222746844,-6.372930289595558,0.6302619923521746,2.3392620821914107,6.19363037015151,9.28056906661125,2.8963154613799276,5.5991994643081,3.283521937467512,4.256451426509429,3.181029619240178,33025,50.0
15.640625,62.0,-1.1119287462302196,-2.4768548815404188,1.880954379273902,-0.5061935239847486,-3.365917178644679,0.12214406188896021,-1.4109456144329044,6.341555700764019,9.274157629965387,4.321401972164139,8.78370400750569,3.6326686169924045,7.6159218699597915,-1.6971855751104954,33025,50.0
15.6484375,62.0,-3.7182875815180694,-2.343595357719579,2.866737329149757,-0.9321357665237286,-1.0166229932137583,-1.0958439661863224,-1.3267743715847615,5.035261635434097,8.018467101881456,6.700774208324773,11.005505646759147,1.5758810661328937,9.589621065835814,-1.0203574159962727,33025,51.0
15.65625,62.0,-1.616049788992271,-1.1545640139895426,2.8649561223958386,-2.408792336332283,-0.6602388924647613,-1.5981343510882482,2.43510042600181,5.856560461358725,7.831336378324309,7.419871556905534,7.346927413420943,-2.443365471667491,5.308483631716754,2.34951957537713,33025,51.0
15.6640625,62.0,2.957887075085935,0.38337860580308813,2.6171255741730164,-0.9137364262374064,-0.09402659631859933,-0.35828551879025383,4.163091722811586,5.931736381068305,5.9492231236645665,4.704353667103902,-0.7875103284841884,-4.324206632946243,-2.442992295240387,4.057595266965279,33025,51.0
15.671875,62.0,4.359639324776381,1.5723969945446044,1.191184073961466,3.597466817169064,1.1498075103957461,1.4708161878601373,2.6078582324246895,0.850566308248446,0.20112578361323585,-0.7725077164771932,-7.6434435834429735,-3.638165286281648,-6.416526113671367,2.1291341312349346,33025,51.0
15.6796875,62.0,1.5903908852503719,1.6159416853004132,-3.4547410585796996,4.567622510495198,1.6729164297684491,1.684652883461979,0.7846439436525117,-5.537476223715814,-5.837822358356576,-6.055439770197637,-10.060392023761935,-2.8146037720391917,-5.250809801790439,-2.7728924125871828,33025,52.0
15.6875,62.0,-2.8519760234800344,-0.33336167254860527,-9.05705342556638,-1.0415290878104742,1.3170758060335146,-0.4463996323757726,-1.8981251831205412,-8.031714120718533,-9.306902350952882,-8.502754075674531,-8.090192769444542,-1.9841001871620563,-3.5763759889905202,-7.771391163101953,33025,52.0
15.6953125,62.0,-6.920638239174295,-3.1681981255675,-10.312071704844385,-6.451785030966491,0.5361331729487375,-2.7840512742072576,-7.267787736408863,-8.958671378324823,-11.173423995712994,-7.530007762584901,-3.1498289234490215,-0.8492722766248733,-3.6945074437286536,-9.516171703012716,33025,52.0
15.703125,62.0,-7.737253502192161,-3.466791405763388,-5.299121257289073,-4.214645981125074,-0.4693071880414976,-2.4169058929790737,-10.642195589376357,-10.39164839728491,-10.310105160524316,-3.330359268682372,2.951900643841526,-0.2499819948686195,-2.992368297370291,-6.491122177080001,33025,52.0
15.7109375,62.0,-3.143502488021255,0.05238368768279145,2.7783920856865194,3.1189064744678916,-0.2898859731813985,0.10541670939697667,-6.053355953783978,-7.630735099084816,-4.314075009692857,2.9292037802866133,8.802704895253413,1.5616187380928181,1.1102282302344264,0.37561276180210257,33025,53.0
15.71875,62.0,3.325259522056868,3.352985587106332,8.14313522592873,6.619976704420736,1.6411729547723866,1.1045100331500066,2.555763263592354,0.9025123184134287,3.3417173320570157,7.313192948686378,11.47469686665805,6.488874664643518,6.387481905198783,7.443732873447772,33025,53.0
15.7265625,62.0,5.980410772142747,2.325544431956672,7.293277236389102,3.186051199191809,2.238520530642461,-0.19649546469052837,6.1986408382982034,7.632988080851035,6.078038929466899,6.131747230341958,7.141313249128757,9.977309136132533,7.551049886363117,10.042291190379203,33025,53.0
15.734375,62.0,5.429913059396327,-0.1375160452312798,4.214819896246198,-1.0748003714964085,-0.35184530542871073,0.043384262642192084,4.688055348935123,7.43712545524177,3.8614365558210437,1.390333239625548,-1.5409752866526247,6.547715098082236,3.6362983812520326,7.909622966603976,33025,53.0
15.7421875,62.0,5.929536372879383,1.5950468065905312,4.9318066036936585,-0.7202431532620466,-2.3497823841312027,3.5275808130959376,4.414117933934875,5.598382642037933,2.634369359168204,-1.3525092019909124,-5.754063269803126,-0.06441589004572279,-0.2953970923889244,5.523651944100678,33025,54.0
15.75,63.0,6.524450288715258,5.409799581067944,6.0668208237493815,1.218755603608841,-0.8050177108530363,5.9646894629604645,5.716550237358163,7.219322760596228,4.446823347379365,-0.7902997358692545,-3.025163138609244,-2.5406256080870406,-0.850093021116237,4.41829607782212,33025,54.0
15.7578125,63.0,3.2137523921041122,4.218599956316467,1.3225624781138663,-0.039014446898747224,1.607840526692712,3.4137812858491685,4.2053418679273875,8.395158936713614,5.404241573540276,-0.14257490654594562,0.20728203255693245,-1.0293020065267058,0.3660962633412197,1.6650878803408062,33025,54.0
15.765625,63.0,-2.832174099588684,-1.1545241556662234,-4.02999927601094,-1.8904790030828735,2.7185401594948075,-1.5813022625127786,0.7702221377734304,4.693546618621852,3.7893547255671223,-0.07677414451860898,0.19160693452610644,-0.04777849813754642,1.216914997554369,-3.063341858629599,33025,54.0
15.7734375,63.0,-6.69248221476002,-3.576658787702982,-2.90644686999309,-0.33115127489243434,3.123765602325392,-4.025713711871191,-1.0512825478775767,-1.5082653651495832,2.2545074117081754,1.2596762516492106,-1.2105660548431274,-1.3601778873486268,0.08062575239033265,-6.986541852775119,33025,55.0
15.78125,63.0,-6.8680102087037795,-3.158486841455428,-2.1166070213600676,0.3269915513531316,1.0903357059122953,-3.692741769717557,-3.165119050792484,-7.405008534024404,0.781744552599335,1.8086766025330547,-3.5283298210385823,-4.7257173967055195,-4.165907318866886,-9.437117061317423,33025,55.0
15.7890625,63.0,-5.525820299160415,-5.320040469004226,-8.55983805961094,-4.764699937251024,-4.53638554631101,-4.097526043970632,-7.844977255652751,-12.670750972982617,-4.122956243665541,-2.080315882204957,-7.040955699327924,-8.959111411090959,-8.45284354170525,-10.388007526199132,33025,55.0
15.796875,63.0,-3.7969743349113685,-7.690270606485839,-12.754972371936745,-9.176277895810543,-8.367688299450464,-5.322729588277014,-10.123272179059668,-13.614198100385678,-11.01231725283941,-7.582147306408004,-8.454220195629503,-11.015956316853348,-8.163599535540328,-7.58574379624622,33025,55.0
15.8046875,63.0,-0.7255116687084211,-3.359088698149975,-5.033694289770736,-4.039753136920353,-5.3811806837654785,-3.1538222524868758,-5.102995498157441,-6.286616458965014,-11.875467009906217,-7.824841475121076,-4.60346088212728,-7.489559713861496,-3.7872940969031106,-0.710252997867471,33025,56.0
15.8125,63.0,3.583505873448317,5.549945409142779,6.426370325757446,6.686182659002242,0.8529393298073131,2.988451299345641,2.8811493690435412,4.353610284017805,-3.221549109650695,-1.870601496711572,2.5956592508615444,1.71853850939344,1.5674622046091429,5.867374285244864,33025,56.0
15.8203125,63.0,5.672247543657747,8.977367944552498,8.902274840536563,10.99996480458644,4.380236513001151,7.0090226306973165,6.327893211429483,8.948796906287797,6.167496667868278,3.6358377325696267,7.706844199711227,10.004163220420523,6.216154646686036,7.708452582462812,33025,56.0
15.828125,63.0,2.3062832983784602,2.2723017574851667,3.1185352890020965,4.535505041514384,3.960736967095926,4.507814819623164,4.603849201163484,6.050666928333513,5.66482780829547,2.9950629822840256,6.647608401412455,9.411741063217121,7.489196089256822,4.829609369864102,33025,56.0
15.8359375,63.0,-3.275439892335129,-6.953411189201148,-2.0257309045526455,-5.224583523008846,0.6032095306944143,-0.6279929856653155,2.6553118218004954,2.4227846381609766,-1.0267392326892946,-0.8644017230154475,1.7303256696468168,3.2329396043021177,3.9098375245354617,1.1566833831686267,33025,57.0
15.84375,63.0,-3.6346377233856657,-6.89595759989966,-1.57071501889898,-7.397561501926759,-2.342071920179052,-1.6963804360276384,3.3043498614819953,2.780143005622122,-0.9229294575661271,0.47010723613801986,0.829138479012741,2.941237710473004,0.1624992133115768,0.7154701574808797,33025,57.0
15.8515625,63.0,2.365465380070262,3.0602863570257313,3.5277418225718264,0.4398981012070067,0.2953140694089882,1.7011485215333835,4.325099663601705,4.220234373302844,6.874116610631347,8.038344468533154,6.0872801915121215,8.938824490322446,0.9624149250814185,3.068355256615419,33025,57.0
15.859375,63.0,6.92072257186733,10.433077677296055,7.6724301455195985,8.047899800782034,5.218266488276598,3.5625148798721398,2.601622445999695,1.9642422352121542,9.581192114075733,11.334922041413137,8.466108456639006,8.958770539814807,2.8684455284880386,3.4166363134547026,33025,57.0
15.8671875,63.0,4.629352813533075,7.149516338802826,4.913530143099678,5.566722044387902,3.3479983434546625,0.5392435801407487,-1.2261288380820758,-2.171468894078629,2.5007018564287478,3.783364239813494,1.7501301051662779,-0.8940420073542867,0.22489896203676096,-0.3070318810484167,33025,58.0
15.875,63.0,0.21387862432774796,0.3370682783199044,-1.961248373165347,-1.825244597554871,-1.2867675266866883,-2.651200547619794,-4.141846638010392,-2.541788315261698,-3.795471184815767,-5.6100125659060325,-6.573787703336762,-9.332847514369945,-4.752310149498001,-3.731459364322859,33025,58.0
15.8828125,63.0,-0.6003625467937184,-0.7295961288775743,-4.175912087960427,-3.2134133699060072,2.034660566459621,-0.8554364148905336,-4.7067826890549895,0.3177270576987752,-1.6359349533308603,-5.580678193581505,-7.389088844081115,-8.678762604143259,-5.181198615178673,-2.948430954035473,33025,58.0
15.890625,63.0,-0.47206440300553254,0.837737636753161,-1.4424321728988758,-0.055711052484682,6.556476857405215,2.1838044655016517,-3.4788887821244145,0.7276609053740088,2.446540775607758,0.669589932029325,-2.992486595111231,-5.82693317788781,-0.4210086643266209,-0.3815126815104719,33025,58.0
15.8984375,63.0,-3.2817561328301252,-2.9828373667194086,-1.408840328554632,-0.7710237984741326,-0.6815717574751119,-0.4272246246493694,-2.118269558823499,-2.731554747701466,-0.46003495509725667,1.6151307541803988,-0.7533412537317474,-8.072976712587874,2.7225124864758783,-0.15672928485342652,33025,59.0
15.90625,63.0,-5.503367143959537,-9.865056843956467,-5.110497735374537,-4.404988825004139,-12.187875832302112,-6.709330887034099,-2.7292437691113633,-6.761414662152347,-8.06705047415025,-5.333166637453289,-2.3245224834822693,-10.536343289531132,0.1798667286012119,-2.364151355957773,33025,59.0
15.9140625,63.0,-3.27880966662201,-10.328207802481828,-6.354173305841371,-3.9958432891978077,-13.039479967663652,-8.647863111724703,-4.899260761281511,-8.399563672926035,-11.051319729705625,-10.556562125663973,-3.729985191435958,-5.371520997582849,-3.2713700953716796,-4.051953798765226,33025,59.0
15.921875,63.0,-0.5738485902756025,-2.928675908947355,-2.614559260212104,0.429719385135499,-5.703401141775217,-4.666676375320478,-4.954006712578462,-5.685071834186601,-6.1690192578788015,-6.066538179725157,-1.4547244027999255,5.865465853155271,-1.4842586521244243,-2.4562347406268685,33025,59.0
15.9296875,63.0,-1.652573020232694,4.764394416581226,3.828773566685058,4.054022348347473,0.5625527555681771,-0.009456075027358679,-0.9020070657253996,0.7469858947748094,0.5828253718310492,2.607075925630781,2.8663173800779873,14.878288791768796,3.171525577845699,2.140018767247085,33025,60.0
15.9375,63.0,-2.853662184606222,7.960140219034386,9.152613876313481,5.637279595906065,6.101271948755269,2.983562285035177,4.99428946696095,5.773656688169339,2.9091737644424143,4.364830254246954,3.6045149667768612,14.91013595281676,3.4877414287414155,4.9978820934583865,33025,60.0
15.9453125,63.0,0.23209406721888115,7.276686689073301,7.805626443073066,4.738944896430027,10.91199587814262,6.1310279261083025,9.510016697879166,5.928467888394749,2.094259949312729,-0.3030996319867967,-0.7760172559275418,5.4643493697969205,-0.7949813370064476,2.2287188598042604,33025,60.0
15.953125,63.0,4.582865574345192,3.4027196932564863,-0.8106606225197197,-0.7102729708764599,8.83836986262611,9.122061159160495,10.801463017266144,5.188352144604281,4.217640827575195,-0.7124230631673214,-3.6265622464024005,-5.306226706269825,-2.903884123113059,-2.0774650293720924,33025,60.0
15.9609375,63.0,5.44038680813793,-1.9576820369830017,-7.280903634305687,-7.309932065377225,1.214530558451628,9.150454142227346,8.340480546562475,7.7154119335678075,9.792950070837108,5.800850597204359,0.48654029413954447,-7.083282873324606,-0.606357754055864,-0.9270122842813038,33025,61.0
15.96875,63.0,3.8005891300957444,-4.324614238071106,-4.818559941095344,-7.5014444320598415,-2.7894440671478975,5.215318364854525,3.2436554296989755,8.674476997161946,10.49460926727194,9.617760335210036,6.53878234158239,-0.8890247981858153,1.2804805351894544,3.9257096850621593,33025,61.0
15.9765625,63.0,2.4095933145604675,-2.3416848721312817,0.23522003184707785,-2.0823761079658567,-1.6858230944353494,-0.8336861548539787,-2.4537493476928915,1.65012035683975,1.8288994914540382,4.879231526599497,6.653794256716338,2.4820141860878806,0.6416291942819328,4.3435964217360095,33025,61.0
15.984375,63.0,0.32819299667701785,-0.744609676161005,-0.17725430308463785,0.6444294242019737,-1.3333153712316914,-5.712118781924886,-6.906440672380057,-8.09325664253845,-6.866865478394345,-1.837512200718976,1.9980579865692505,-0.4334706907267787,0.6814894446239776,-0.9944128284982128,33025,61.0
15.9921875,63.0,-2.813587804616006,-2.1638160440958814,-3.291338498708626,-0.7425088841070675,-2.6319517700335098,-6.604803477406222,-7.742516048871494,-9.235278940010417,-4.908033242860768,-2.672413107684676,-0.8367579005271182,-2.0219334395990245,2.404805362017683,-4.442481692377541,33025,62.0
16.0,64.0,-3.3390891520960366,-1.8341131329212885,-1.5426857230251017,0.35016557101616286,-1.583645828290301,-3.7885532372660293,-3.6441670814975993,-1.210885127335544,3.474987538038917,0.5354092750914816,-0.30552139075643936,2.2671458918322855,3.427895912034529,-0.8985010205595643,33025,62.0
16.0078125,64.0,0.11148067377965276,2.6787309059280346,5.222746929562248,5.261595581744103,2.0836190338992253,-0.7095403915162137,1.5616058769919618,5.0506283386916095,5.472256834996685,0.7232024098426848,-0.623543552457221,6.43374636822594,2.4284559906652845,4.01612410960594,33025,62.0
16.015625,64.0,2.510350878586422,4.378286743759503,8.975277874739731,7.065255113902097,3.522891436199828,-0.01908567660315441,1.8013674957920927,1.9865224089759295,-2.6036033022001135,-3.970950090488671,-5.090938863080112,2.6074327940072664,-1.4221219274912045,1.250595612326748,33025,62.0
16.0234375,64.0,0.0704667799558365,-0.7349206846582916,4.69274985988865,2.6630429885373132,0.28164119075836425,-1.2581185568514712,-2.6850537716409946,-6.087459276326598,-11.50521359032011,-8.028425221597104,-10.062855734122309,-6.258666080228906,-7.127635864078442,-6.570379594816387,33025,63.0
16.03125,64.0,-3.291289608753175,-4.379366064685698,-2.3883253423993125,-1.7386706094767845,-3.822972223484882,-3.146434928574976,-5.685480755289035,-9.465838087435799,-11.290255426580103,-6.129885671185633,-6.760302755450567,-7.6805462169945,-8.174407270940392,-6.77799216335535,33025,63.0
16.0390625,64.0,-2.7854156770659984,-0.07844070515723445,-5.1468816309697445,-1.5266989426302757,-5.431396691209088,-4.603594996303627,-4.044550421909818,-4.815088178626539,-3.1146979989512715,-0.3557204393591036,5.65561377927817,1.1884693505486865,-0.7723525188073666,2.3047009719615517,33025,63.0
16.046875,64.0,-0.568439503373142,5.5120172059081085,-4.0095755963816515,-0.6155446441269845,-4.860731062045986,-3.2930449365274512,-0.5911213902871566,1.4770048988279711,3.555732636434911,3.0658962260249183,13.980040491367944,5.5440720886974475,7.174523758393178,6.954180009918289,33025,63.0
16.0546875,64.0,-0.48443562351732794,4.822245181782847,-2.0567384498697265,-1.552536437899363,-1.4093265401956785,1.5251701201130459,1.3078010235540916,2.4662092267043505,3.7020045368001178,2.501322706151484,8.031521022407517,-4.478078593048025,6.84806577812256,1.1939279971312118,33025,64.0
16.0625,64.0,-0.6180775503571283,0.848508275409813,0.8493638277935531,0.021606430583602787,4.058625353435389,5.5849103507104445,1.8929227390707553,0.8146244088443524,1.5877467148137328,1.797777264843802,-3.3922620211111507,-16.096065808047825,1.3017340268796858,-3.498612083182337,33025,64.0
16.0703125,64.0,2.091812771953286,-0.9027561940812916,3.502293139130799,4.110192741606326,5.7198898130492495,4.98830776031302,3.2013268599824727,4.065469484702348,2.4564058536737434,3.112574613982815,-6.178170749687027,-12.455767472243423,-2.196658936959807,1.2865741823071914,33025,64.0
16.078125,64.0,4.49604131037627,-1.792024896170176,2.1039707270813324,2.681135765704653,1.3907859250655008,2.0942591520892364,4.75344957800084,10.210854159666297,4.7612957659232364,3.415082996623539,-2.670478707073144,3.0956141294778803,-3.729465125867222,6.971184332534435,33025,64.0
16.0859375,64.0,2.110110033527434,-4.641978449767123,-2.1402892627300076,-5.4274029405682995,-2.576918254969968,1.2957272486906106,4.18320946217132,9.054261919478506,3.9390214565045767,0.05510757486869977,-4.162147962784488,14.337878565000793,-6.218751954517373,2.7768445493384917,33025,65.0
16.09375,64.0,-2.281642005409509,-6.200863818019144,-3.3920057804817674,-9.356423284584295,0.3483147632845487,3.386163407657392,2.642879929973674,-0.11030056400122135,0.41239373628754095,-3.620704045603702,-8.840163878832172,14.51560540648721,-6.87846937268813,-6.840239757568071,33025,65.0
16.1015625,64.0,-2.8159749143801207,-2.4452145119702067,-1.4348372064794006,-3.1480877883697502,7.9291323945841725,5.825437528239178,3.550011857980067,-6.464934839788199,-1.4094100745674893,-3.0605359844152957,-6.396996732531619,8.544110147685004,-1.8104710897233645,-9.547460298323045,33025,65.0
16.109375,64.0,0.07639085763129572,3.2072112491929374,-1.199691427463776,4.7127562399049765,9.950234101910212,4.6141557390214984,4.834546174411102,-5.168502772256048,-0.27161728339039826,0.051988883751022286,1.7146395049017826,0.7129611033087713,5.362168514438338,-3.753593013193523,33025,65.0
16.1171875,64.0,1.553613398794596,4.628291079371579,-1.7566312575309126,5.466851716166104,0.8038475711212953,-1.9300249364273157,0.7645311985885712,-2.228469197075171,1.3552978641550482,1.5597352618965061,6.354376291188629,-5.888925266824543,7.879512496502983,1.5719537910777888,33025,66.0
16.125,64.0,0.33569559853144426,2.5344768050706676,2.381536290725549,2.5356255762586954,-10.59215219402698,-9.150521772320033,-7.4489846350299445,-1.5340877703517464,2.55820311447674,2.3312515061218733,7.8472266176839724,-5.184360078289103,5.955951757014816,2.3604339115181716,33025,66.0
16.1328125,64.0,-1.0927233629364679,1.8254308863313327,8.649487020210316,2.3694800507188774,-11.794858622943593,-10.286427867261622,-11.78321375839559,-0.7224796473403501,3.7200126648929484,4.673118512730625,11.298123138026199,3.2254433098333237,5.030244697130001,2.694919915467267,33025,66.0
16.140625,64.0,-1.553433487581188,2.0430055606166775,7.412339312329735,2.501514060548658,-4.465945112701803,-5.504137246323467,-9.00913905990312,-0.013459564059274953,2.053648653344837,5.135319700216485,12.201175037274808,7.933190857067643,5.806118442774789,4.006928917907999,33025,66.0
16.1484375,64.0,-1.4522237134679443,-1.4621553174713426,-1.9725411874659358,-1.803586112913564,-0.1478007799190948,-1.4866980274098722,-3.840472298493623,-2.545298844702174,-4.629756951033116,-0.44215436163493393,3.3125437168507545,0.17109846944315166,3.0254530577080345,2.6625008321105668,33025,67.0
16.15625,64.0,-0.3998180989458291,-7.373807584949887,-8.310555930511882,-6.74975150659543,-1.3932785577795812,-1.0164197366101035,0.07650720815166778,-5.6009159013683245,-11.008816587830779,-7.729416631424982,-9.382585248075074,-11.351534168590646,-4.971875739203398,-1.1021483446409803,33025,67.0
16.1640625,64.0,1.5342804131845185,-7.877946356635874,-5.562218088440176,-6.259346826168269,-0.7516105341082095,0.2220604978989229,3.6197167626305315,-3.4719496701063264,-10.782234249682475,-9.500759529420037,-13.702570676722829,-12.817770003351242,-12.080049457149201,-2.5315557874978936,33025,67.0
16.171875,64.0,2.4497906248808192,-0.8583574637370504,-0.5196165733465676,-2.140111102684145,3.2965543735507197,4.228718780658184,6.265633092811029,1.8079524181473943,-6.797396365905172,-6.676588570091283,-9.742366895928399,-5.930907533799228,-12.657115421095213,-1.2556122930304099,33025,67.0
16.1796875,64.0,0.8758253659504902,5.603372121429729,-0.2734485757542302,0.6343443611513777,5.012851988485579,6.774978711537074,5.912456239268508,4.216528893161964,-4.116448802131259,-3.7735811814224434,-5.922827551865041,-1.2720220956283157,-7.604528338336237,-0.6617980193357766,33025,68.0
16.1875,64.0,-1.8220433826252105,5.445074355764632,-2.911664923102734,1.504460325514188,3.4527804207447588,5.27253506638597,3.99909268634606,4.5168352054521534,0.3495646446931744,-0.06028175979567152,-3.4197759499060254,0.019236995668777013,-0.45564273670824207,0.013266477236854257,33025,68.0
16.1953125,64.0,-2.464078353617438,2.632831142930968,-2.9629773566245206,1.957136885153119,2.0162746158104454,1.980216884937775,3.098557278630807,6.283386769210125,9.773510820443107,5.683289439775848,1.4919172439705903,3.314322443837355,6.012631928811686,3.112071472723187,33025,68.0
16.203125,64.0,0.09619594676841814,2.3402772815583575,1.4881086320933719,2.841476845047609,1.7448492148332377,-0.6157277013510907,2.5795505036609114,7.717967754201126,17.561416389502497,10.298870944205404,7.9644262681770925,9.13846163313714,9.418442429034243,6.265584805420488,33025,68.0
16.2109375,64.0,3.3988120680715923,3.49815067817336,7.738393316192088,5.1186261323381785,3.6637243185884927,-0.7768692089832285,1.4054561153597973,6.415731518002275,16.679848535443824,11.616072040285047,12.777029349256935,14.390150189332047,9.456092959434145,6.516860644431901,33025,69.0
16.21875,64.0,4.541241870837652,3.0461121379358786,10.341959576913965,7.195433895636484,7.594084990557093,2.413045114711821,0.3871143941919257,3.923085619220771,10.004698694359178,10.257580565248801,13.373191724666356,15.587712834969238,7.816111592983162,4.364894799461368,33025,69.0
16.2265625,64.0,2.588564011315924,-0.36921304904322483,5.707080299676335,4.513586560518419,6.741407724836819,5.260063605972377,-0.14507680326967431,0.29358903410422954,2.9014803091258017,5.359194420511727,6.860039530410944,8.72565234828069,4.226892107112263,-0.3726135655811049,33025,69.0
16.234375,64.0,-1.6771279135278974,-6.000526478443248,-2.8237534331543657,-3.029743419549419,-3.3254095026006922,2.04142176002307,-1.4970935961972032,-6.536595586839695,-4.981064396757262,-4.103745078300037,-5.181868345371456,-5.5202744462228,-2.5669651906058135,-8.585592171491328,33025,69.0
16.2421875,64.0,-5.540552082112924,-9.334254803768545,-7.835924800109126,-8.387917984752292,-14.08908222018917,-6.117221115620865,-5.3634989006076665,-14.127152197133242,-14.152125335502816,-14.195927987040733,-14.576183550251471,-18.813990527888038,-9.780882303181215,-16.191730388523354,33025,70.0
16.25,65.0,-5.782565816690436,-5.790833813055158,-6.522410463314671,-6.599583621299075,-14.85088685774575,-11.47146883133017,-10.83625391164179,-16.717745465267768,-20.019472496394243,-17.61494296282811,-15.662855739508771,-22.789109844123544,-12.457082716751373,-15.913924357412938,33025,70.0
16.2578125,65.0,-2.5181869961869268,1.7066948913751503,-2.3558693119133522,-1.4704086120951558,-7.200298862446957,-9.16221611790965,-12.398216342607725,-12.137753337935848,-17.605326668441535,-11.799622087948478,-10.1595523038675,-15.857512542841647,-9.482233394472402,-6.106600321151532,33025,70.0
16.265625,65.0,0.44860597311677,5.310433566921489,0.4805743759717842,0.6831962978358916,0.21147309857977348,-1.4409841719342609,-5.211475465356159,-2.231457156713148,-7.21638413194087,-2.1131318273478854,-1.880415341065202,-2.3339951256386797,-3.2616831489783493,5.8602189936456455,33025,70.0
16.2734375,65.0,0.6016390059459837,2.671171744727417,0.4586481159888791,-0.6510830359461579,4.2069904551376,6.185479625082891,7.237620241159888,9.184031488405708,5.213375748476608,5.175103652359695,5.591368039974682,10.05874835776494,3.8629115527234035,10.689561752980325,33025,71.0
16.28125,65.0,0.2660453608842488,-0.9446887948166705,-1.0932587403886913,-1.4542404445484465,7.065061245795889,9.007550331279276,15.194298197157266,15.994190182199333,12.605369062351983,8.913648042939457,9.08668039145256,14.726989254383781,9.661545202423554,7.956783126660625,33025,71.0
16.2890625,65.0,2.904525172122831,-0.7588947685155034,-0.9479631910129456,0.4631203414566727,7.923760029933419,4.946160539689984,12.306594497429941,14.10023877783432,12.842879023976579,10.321991408148278,9.781317425130823,12.772723151766343,12.04198774536792,6.440144758774494,33025,71.0
16.296875,65.0,6.811383137455493,1.840961497019606,2.54665074576684,3.3183773140570594,2.843575641014354,-3.3338077444041545,1.754472521266834,7.067819805591881,9.15348615560292,9.770337520269038,10.990494215820362,10.329944006317263,10.427039341638562,10.086375274406379,33025,71.0
16.3046875,65.0,6.608370170406147,3.122056991747584,6.287589343109758,4.491596638525166,-4.814789554868099,-8.306848900210639,-6.643599471955383,1.5055611405077656,4.851875452279344,7.314175681846137,10.261999607523322,7.821180229081989,4.950303258772706,10.779819962149503,33025,72.0
16.3125,65.0,1.4687116694359617,2.8467573640688357,5.412920016024586,3.7529419289769947,-4.190828658867048,-4.470636409460667,-6.255373848795202,-1.4279692989167216,1.1249297514407886,2.576064473866637,2.707499967338137,0.7665162109330481,-3.272345738815403,2.1344905849941824,33025,72.0
16.3203125,65.0,-3.534173883065975,2.2567894478719097,0.1382397724106852,2.297972178034243,6.227744834536054,4.290352693959704,-0.10409854348847603,-4.545263855995884,-1.7762324335997022,-4.381158514131897,-8.583364167820406,-7.718077004440275,-9.897088142539872,-8.731373054924319,33025,72.0
16.328125,65.0,-4.819957688253254,-0.0910446832520364,-3.981750631524406,0.016435894980361354,12.104103874478128,8.983159928215159,3.831200521153832,-8.121851013056997,-4.710619760012989,-10.69200606087793,-15.04936496583116,-8.091524233422845,-10.46126955994643,-11.530867183689566,33025,72.0
16.3359375,65.0,-3.523715121971833,-4.458100959129027,-4.040523098684744,-3.5690747995360113,3.3230695240800827,5.856536697533457,1.490659583333482,-9.692778198085634,-8.029382283718675,-12.25268060498297,-13.09781444219513,-1.0945923350137576,-6.062138450949149,-6.482774347827018,33025,73.0
16.34375,65.0,-1.8519024134953668,-6.467094025456618,-3.0085009665307467,-6.800585292495754,-9.923603954491085,-1.1554959554052289,-3.8551044093702416,-7.088999657161395,-7.857459574117016,-7.315506369086805,-4.961907610308344,-0.05601873580120298,-0.9575210567859784,-1.155531687401961,33025,73.0
16.3515625,65.0,-0.7941029506458932,-3.7145272855497495,-2.757624342643666,-6.973539092227384,-12.523745332998871,-5.536498269089705,-5.3699630466427095,-0.32048830663956096,-0.6930251985434523,1.835837277808011,4.856334185397387,-12.027477050580828,3.151406065241261,-0.26262817217597956,33025,73.0
16.359375,65.0,-0.7761011170591416,-0.06032677909796291,-0.852539742207199,-3.0825060416562025,-5.138007655559079,-4.195712962463176,-0.8844679822268091,5.817193161066143,7.0029970150001475,8.307898567246042,9.19763520102235,-26.087888660124477,5.234972895655659,-2.6701672604743294,33025,73.0
16.3671875,65.0,-1.2757501695315483,1.5988652775059364,2.8066642670862905,3.0991594392457813,1.8579342890523662,-0.10832727719513002,4.015720912207399,5.027610246472804,5.179516353577014,5.717961695767755,3.7221237291727363,-24.705401394684955,2.4258237471173203,-4.2274337092727166,33025,74.0
16.375,65.0,-0.3590347059727179,3.486951820236314,4.036109805981468,7.575395519805554,3.6817520859441686,2.026708235525348,4.249054245490569,-0.41638310332155015,-3.4089336492731803,-2.5077860812159827,-4.644092721623224,-3.8082204265263897,-4.119404202675639,-1.8637437947756297,33025,74.0
16.3828125,65.0,2.256842484498975,5.966913163764275,1.6997355192436316,7.116631892781868,2.0057102120006505,1.9086008313402374,1.8556416274167589,-1.8151561483943652,-7.3997952369219036,-6.0887070344319625,-5.390070517521551,21.214052956774168,-6.955872592180015,2.6835941340918907,33025,74.0
16.390625,65.0,3.50857288806435,4.9722650211786,-0.24426091538704497,3.0687259007482055,0.9921536808426197,2.2726100253567694,0.41413145501046245,1.548197438204241,-4.715014495220885,-2.25778821067469,0.3975032732030854,31.7099410832826,-2.6364446323397743,4.5623728637079495,33025,74.0
16.3984375,65.0,1.7693705029003866,-0.009851428678913976,0.11922336724309446,-0.12612255095423563,3.9380098542803808,2.7914798185254597,-0.7727546592761882,2.727774653568133,-1.310117925001009,2.0024785235615354,3.3677251572881346,25.20593216289258,2.545954562811147,2.7636677244124,33025,75.0
16.40625,65.0,-0.5648549807767438,-3.8276416202864567,-0.051310263833372005,-0.9031587435726749,7.172064585706536,-0.003467611235365098,-3.0448103660459367,0.9837581615294511,1.8696399921031173,2.6089983254101554,1.1426904509508091,13.596207384674145,2.961862145412397,0.9543529821833516,33025,75.0
16.4140625,65.0,-1.5943672055779956,-3.9415179479507003,-2.1092018418154623,-1.525687621713331,4.078437432015676,-5.411622911831969,-4.2643366246012135,1.9524962837895288,7.230409031110568,3.3086290291133906,0.10940147131779554,6.118267858272105,2.384145543755537,1.1571581921318597,33025,75.0
16.421875,65.0,-1.672192244230601,-3.1810022471391477,-2.847438312237159,-2.8037753947836848,-3.294416662592951,-7.003646226407795,-1.9553420793214826,6.4384344004006095,12.659057878939734,7.1007283657507685,4.2964338073163475,2.058265101304613,6.752327565435948,2.8077763648477827,33025,75.0
16.4296875,65.0,-0.3385260649345554,-3.5697316457935244,-0.09236534881482328,-2.7892910758614846,-7.356931311366168,-2.4412472574837665,2.143858066215472,8.88892076068798,13.869329567814859,10.622241832153549,9.870862750240406,-1.9242775961516116,13.45011513740036,5.424635620030699,33025,76.0
16.4375,65.0,2.5171851878229745,-3.917676218251742,3.027639469193673,-1.6613733464775038,-6.602895894695365,2.0358059179498866,3.7109733058398433,4.621712199333558,8.554104108607717,8.361093141464039,10.380504999125677,-6.216306923912569,12.95391152786081,6.324401560118957,33025,76.0
16.4453125,65.0,3.8119430624230546,-2.9001338763845013,2.5501260935396743,-2.1786581780929026,-5.04581422152927,1.6260609119240996,1.3604593971627565,-4.7496220368102655,-2.700978815326266,-0.8168402391237777,3.7236121287617294,-10.926355472859271,1.441627673127897,2.0804559073338567,33025,76.0
16.453125,65.0,1.3799171604874658,0.20744463198339247,0.0025026300071999685,-3.7863817246381757,-4.112788618216641,0.19335813627756693,-1.5399203631913991,-11.7343082121413,-13.652937284431658,-11.038344488254467,-6.041788792465439,-16.283302438906773,-11.519901838629139,-4.073840755906076,33025,76.0
16.4609375,65.0,-1.9168102069547075,5.51959311073071,-0.46694129584444966,-2.3634196067717426,-0.6184311219450365,2.7124063110451715,-1.1620312025982145,-11.439974639922724,-16.44137348593533,-14.447470974264704,-12.524131138054699,-19.482108613727277,-14.114255552983067,-5.722778711777963,33025,77.0
16.46875,65.0,-2.6541646080727332,10.25476609976748,0.36006896965815827,2.690172294523663,6.888099461023998,6.1939763128390695,1.5662801166147489,-7.8477684134282555,-12.324534594179198,-10.401099177835249,-12.814524958087944,-17.036256425880993,-8.95350153752183,-4.316429848229305,33025,77.0
16.4765625,65.0,-1.6217722436479391,10.516641736846367,-1.0297060951553618,6.503296503884286,12.365262296924044,3.908513160807189,2.025052166544768,-5.613214256963019,-8.002558380107772,-5.036789346371762,-8.999941760018672,-9.295854458188558,-7.150201588482702,-5.801671073513191,33025,77.0
16.484375,65.0,-1.2337308509725773,6.662474000523332,-3.5360151858667024,5.392412802526167,8.760503078554308,-3.5943293517077564,-1.5608422582924817,-2.4693949083045226,-3.35901887843265,-1.4977797947250053,-4.229153853303757,0.15393354803609327,-8.811716999449146,-8.874200299781492,33025,77.0
16.4921875,65.0,-1.377344532144818,2.261888577300738,-3.4442979051125207,1.7354159672877643,-1.0829247327143037,-8.135804016917135,-5.854259231681041,3.193493004625253,4.107256572514629,1.8780338266496983,0.3282440810777416,7.9657050893702035,-4.987783034877808,-7.035555228358831,33025,78.0
16.5,66.0,-0.5411874556618272,-2.0630785775104243,-0.8523768894170587,-0.5895386880154092,-7.613860233909605,-5.019011284901055,-6.71654347283669,7.147217353843416,10.002945317506118,5.184723789787455,4.4316178212766175,13.082293309302528,4.207909143368738,0.1881972932214211,33025,78.0
16.5078125,66.0,0.42199125579331564,-8.912338981930276,0.5745597848789288,-2.7697358959384815,-6.928039755329905,1.680477126319488,-2.349295507296688,6.751174649693624,9.331923614000118,6.279780248866501,6.925043197578077,14.876785940897719,9.146370921720276,5.870518075584215,33025,78.0
16.515625,66.0,-0.5498422368373355,-16.966761246248566,-0.8246919285280967,-6.591316546167789,-3.5218417415681103,5.667415272118532,5.346433867772561,4.516279876864019,4.089246890790207,4.758165011417049,6.536874987059818,11.761066830704223,6.62420964980052,5.625985757022548,33025,78.0
16.5234375,66.0,-1.9624323922680844,-18.109270814577172,-1.273737519574567,-6.726923844712871,-1.9840640543957448,4.555619439777971,9.765470019046091,3.200188661691996,-0.19821471247426814,2.791109185363041,4.142582302833915,5.866215467564203,3.8307047479680563,3.6775589679543685,33025,79.0
16.53125,66.0,0.10416095764632871,-7.234791205871204,3.616119071855806,1.4535161697557015,-1.1056882033937399,-0.06855073168804893,5.84389834109615,3.339462063180676,-0.044215760289915806,2.6351472434119216,1.7496172669823693,3.7318404519277664,5.702745844458548,5.428040524271111,33025,79.0
16.5390625,66.0,5.415215182931732,8.161060258983468,11.240303378774641,10.647923814368454,1.979365416910639,-3.4390961478955973,-1.0935310123211792,4.411776466497855,3.7537426622426153,3.3343783284434068,-0.1334361467877727,6.933553583653264,7.675503052044704,8.801284264429526,33025,79.0
16.546875,66.0,8.435104333757437,15.576826452331815,13.785202927769703,10.711361606698688,5.181466609474171,-1.1861043377816856,-1.3112923273738772,5.153038314197914,6.868379560390679,1.5958773433547293,-1.369553439125312,8.274775519182143,4.383254260685149,8.460563743568159,33025,79.0
16.5546875,66.0,5.458988489095603,10.677078551289625,5.933569419393322,2.770964804784157,4.319934333290931,3.6148369381201775,6.2246969176195535,2.673822558132059,4.8599557106733755,-2.1700464077215145,-0.3487006950604865,-0.1560033964119043,-0.7320726208380961,1.3706618744575962,33025,80.0
16.5625,66.0,-0.5301708023499856,-1.5824685381892465,-10.161703170199914,-5.306349137573264,0.8709789572975666,3.0532505596360124,14.247698789146995,-5.325028794991368,-2.6727311441657804,-3.1008132163963182,4.016769140422014,-17.412396540486228,-0.4190067205941972,-13.161418893268376,33025,80.0
16.5703125,66.0,-5.069575724598494,-10.303897554982484,-22.31056777931302,-8.796451704522227,-0.7171459895236154,-3.0992820524393636,11.985789543341184,-13.666069823039948,-9.63505925349466,-0.07963534717528375,7.901947302692847,-29.31366364933082,2.6450760573565333,-25.271634025961433,33025,80.0
16.578125,66.0,-7.152560924346773,-4.921108992375736,-16.980450632747193,-6.810542573642479,-0.7974780501152736,-6.207365727319498,-7.271164239041923,-11.91385265289766,-8.28107789282447,1.3770479627703054,3.9884695687344305,-20.150140693603788,-2.3040991642638176,-16.584084505879332,33025,80.0
16.5859375,66.0,-6.071458794575406,10.844957483878346,2.2743353550570475,-1.2275049595749863,-2.009743266147211,-2.3217729595248073,-30.647180782580605,-0.26417034974429043,-0.539476545395928,-2.426328265499407,-8.022815697990836,4.129699180183991,-14.189539128373355,11.153286158662638,33025,81.0
16.59375,66.0,-1.9351503493481061,19.454495159215938,16.30664185304491,3.820446053137303,-3.415388488234811,2.185983061459936,-35.28654368601357,7.1654756255624505,2.1988659743627323,-7.754879583505911,-17.595104623477837,18.51714308869836,-18.551505991209652,29.873430504659552,33025,81.0
16.6015625,66.0,0.3672519715897522,11.482131244795966,13.534931110552733,4.256867472975827,-2.0115686969157736,1.5271335617890713,-19.476861625470903,1.747589713832923,-4.149723502459267,-8.722394233797203,-15.589509999214599,11.29560594473628,-10.74367261154859,21.419832383318138,33025,81.0
16.609375,66.0,-2.465704917116298,-3.705955527193723,0.16236597884336845,-1.0119242297593587,2.8113024843782597,-1.044759969042488,-1.3751340895959885,-7.564604484538833,-9.907516229088344,-4.566313856281781,-5.956426272171953,-2.8301505543766012,-2.0716434287194687,-1.0702104834177533,33025,81.0
16.6171875,66.0,-4.758611465023293,-12.550123040824175,-10.962874105972361,-7.703017932785741,6.84607556374462,-0.007500190319404965,9.641294162893715,-6.96198088658052,-6.245279207540108,0.7915077492957607,1.3128136334841116,-6.267849793992298,0.5642759357050409,-13.931162308334962,33025,82.0
16.625,66.0,-0.049819544434214436,-12.232195110523179,-12.190077727752083,-9.352046988631926,3.8822911513510405,3.428366159420989,18.71830563571666,4.874362725571373,4.1786416784715215,4.912852149362152,6.400218531320476,1.014506527248912,4.740509206496057,-9.448386123081875,33025,82.0
16.6328125,66.0,7.790042883305944,-8.043135074318215,-4.331800327056143,-4.455879021399937,-5.246587222556528,4.297930216928094,26.971962984223907,16.291501079499056,13.041437662876604,8.675596546776717,16.183159503121743,8.89305313691365,16.523463876470515,1.8928473953434661,33025,82.0
16.640625,66.0,10.35511858220589,-4.15179493529412,5.329660150701002,3.2898205835049765,-9.563094917590504,2.1626077525333756,26.854156573525714,16.4422718078429,15.410491884326007,12.11271115234932,25.82345260897442,11.074049867080674,26.33224874090365,6.344281858275224,33025,82.0
16.6484375,66.0,6.621727355204072,-0.9370126509123793,9.612174334439175,10.467770830135251,-2.0302452250932816,0.4424182902395728,16.11791591999912,6.07829721503667,11.438275641836086,12.32519843838169,22.29031869659177,7.384346010236541,21.133134240294083,0.6996616534400317,33025,83.0
16.65625,66.0,1.8792604985553112,2.663558032609771,8.212545794826497,14.723258287816208,7.515523505130147,-0.7210995620837508,2.0336214320686565,-5.817434477024861,2.8131722396341985,6.397401648378718,5.476798137969496,1.246940549308846,4.222375930433216,-6.361242823826842,33025,83.0
16.6640625,66.0,-0.27229556598983606,6.283203623025514,5.724160133214667,12.719077389128486,6.086178372859322,-3.485194709286688,-8.149068655147431,-11.946159138737443,-7.239249293904635,-3.9841813115860134,-11.04157705396301,-3.3919500227530506,-9.403046013424103,-6.7452261467136765,33025,83.0
16.671875,66.0,-0.8590796275843502,6.945808624903222,4.203585440207604,3.7127993042157073,-1.9582031656518097,-5.631581770558853,-12.627908476225002,-10.711195631612185,-11.940524913538553,-11.77508418200918,-17.793172785623312,-6.097675123799874,-13.398254076276416,-3.8343189593567075,33025,83.0
16.6796875,66.0,-3.0713971379712746,2.484127593152806,2.1515416251214248,-5.929853464356711,-4.079981821680846,-3.5137512980455057,-13.01238223432432,-5.046622695373344,-7.835080570432481,-11.917494661923527,-16.870214780665492,-8.211993733474628,-13.551386356469052,-4.8587088639227005,33025,84.0
16.6875,66.0,-6.861614222505779,-3.5957116605962938,-1.3504778697084276,-8.482661786282492,-0.7183081708910493,0.5840225866756725,-11.186155251491613,0.14065613654396714,-1.454394064897187,-7.58750859630571,-14.565361333222597,-7.822669287710028,-14.229389250026102,-7.366306349553085,33025,84.0
16.6953125,66.0,-7.651614032989414,-5.185950396147035,-5.732937592209623,-5.108360736472164,-0.8470996154613886,1.8569904435459392,-8.417317478247938,2.0810502378068634,-0.026516593161360902,-4.212076268068984,-12.605369706818365,-3.0396885302875347,-12.614426625602633,-4.066583650198865,33025,84.0
16.703125,66.0,-3.4972780087074966,-2.112294229604359,-9.370596959313872,-3.78279786304023,-4.946931519317232,0.3674712490494443,-6.264332849405136,1.5026086161140029,-1.4244805481063736,-2.1712402843714216,-8.186205565839344,2.148777279903001,-5.861671888120171,3.4849995841191515,33025,84.0
16.7109375,66.0,1.2157912450010855,0.3300370632325951,-9.562125127387077,-6.8777332224996,-5.272747693166693,-0.3653438081699534,-4.9326739452581165,-0.3087807795937181,-1.2968811089416477,-0.38247172849868605,-1.272198714819666,2.572500807071549,2.7706078157757617,7.617686513719562,33025,85.0
16.71875,66.0,2.637829908503008,0.2820535639789057,-5.863275558214866,-7.416512075035129,1.7243649640284389,1.1702622416817263,-1.788363554547729,-2.2153921387247237,-1.2242075460164017,0.31955285838266434,4.211913635500238,-0.5413188363686601,6.985148205113219,6.80528076560276,33025,85.0
16.7265625,66.0,2.1634887844727473,0.9576677392603443,-1.571597087529696,-0.05633191538736071,9.879448399571842,3.265726269545482,4.184359446729474,-1.607896850149757,-2.3489652860424144,1.3135972960836284,7.484865454507855,-2.100459561587442,5.489157553437337,5.575944458165026,33025,85.0
16.734375,66.0,1.959478063239331,3.1622136546945256,1.1663186404010872,8.646618134400086,10.478807359450883,3.335208345588825,9.332047529313286,2.7950393971097895,-0.6614369647769678,5.1623319590199515,10.87459562795317,-0.5864817096028077,3.3733018245109747,5.273172958409589,33025,85.0
16.7421875,66.0,1.3404227775284596,2.944364185945375,3.344902093723121,7.711013686395873,3.368212706895889,0.4611105750479254,9.812583732343441,6.859460133821827,4.262429992418973,8.579131957374202,12.445319863429077,0.7832436579651301,3.8662159052943537,2.58178693491503,33025,86.0
16.75,67.0,0.012555015493063593,-0.6695357301851885,5.592168461825679,-1.079444099586965,-3.300744673273414,-3.3269057659830423,6.153068069342595,5.472363735288781,6.181711275256319,6.120512083280602,8.803145737985417,0.2426555710892302,4.470834558802295,-2.509374129744174,33025,86.0
16.7578125,67.0,0.31320608060399024,-1.9335761127896092,7.088634519252992,-4.747740264151076,-4.597646479516712,-3.8821050757754136,2.7672284717155406,0.5877200849292308,3.668751829624256,0.4433013105478665,3.5372718666769174,1.0011058814579883,3.0599616438889115,-4.371675842795142,33025,86.0
16.765625,67.0,2.2710248724389857,2.125922878280562,6.537462130445107,0.3154916483596679,-3.275807919851232,0.8022463264583592,3.15921207820206,-1.9646851715417455,2.0757134700836986,-1.7954391400239444,1.764554050967746,4.367137714274747,0.9024933197040781,-1.5894798489162412,33025,86.0
16.7734375,67.0,1.3712621376126037,5.198964761184044,3.148060031942606,4.312101788548048,-2.7908829520779648,5.985381670564067,4.155961251437915,-2.0078705474077196,1.4664710536936667,-0.9774641083319295,0.6931732440729803,5.192894897759075,-0.4981437027514204,-0.5825066080024612,33025,87.0
16.78125,67.0,-3.132117657335087,1.9376341830477486,-1.2492767128001105,2.1051689081112954,-3.259069433069982,4.318959898331897,-0.6407397177369489,-3.26348326196954,-1.7598085356133595,-1.080380871898214,-3.6645775420766995,1.751053822413681,-0.3940848359045219,-3.5218550825443913,33025,87.0
16.7890625,67.0,-4.803676723328309,-3.0244287372424026,-3.5934540302750406,-1.0575643548425973,-2.9995570643792036,-2.9779583221046835,-9.115821034911363,-5.11713115177028,-3.9798481872590514,-1.5948227150832395,-7.421004479969923,1.0394173867687044,1.1350787816247419,-3.959629841684361,33025,87.0
16.796875,67.0,-0.630261307427034,-3.6740787943331696,-3.785586897768411,-1.5878933084519105,0.23771760978058865,-6.302735268411837,-11.461822664237175,-4.346830422602167,-1.8285694077580246,-1.3813414400333244,-5.647369951799178,5.392642788753264,2.18176346603191,0.9064399778635845,33025,87.0
,,4.07075009302028,-1.9173453950521377,-3.4676948961197382,-0.8982338321162615,5.395641413930875,-2.3353663081283997,-5.705077275602804,-1.4309375525155446,-1.2067391305535011,-2.219216683766888,-0.7624602642729883,5.682059220960795,1.06156336678346,5.895747797448195,,
,,4.742876014032888,-2.0691426365710868,-2.2441648698010965,0.5532137615215476,6.226008197187497,1.2296430911897858,-0.49763417201558013,1.4633031147567976,-4.214035179860375,-3.154586891004925,2.066108788694578,-3.6714502299497696,-1.2807149628544323,6.953292357415151,,
,,2.5789608532215738,-3.361246735684105,0.6145687255116599,2.474846903673793,-0.04219534806588854,-0.629429170350079,-0.017034819115622213,4.519333029463226,-2.4080829590541413,-0.3310943755395499,1.5894216529789276,-14.607224660513282,-2.694486731979552,4.547570524440289,,
,,0.17645707370387242,-2.254338967177219,3.0447796680340247,2.679937773837324,-6.416370129213249,-2.890890272997467,0.6627812628602925,7.338248761118862,5.977437921980979,4.85135158250263,-0.24146781492915181,-16.1457974077571,-2.2793582273137645,0.5606121288686694,,
,,-1.4427930324246034,1.797054839002783,2.782791534023957,0.9436960297847605,-5.122026546323482,-0.800779663625363,3.171392213289863,6.535147887038605,9.690500536400393,5.952117575296384,-1.2624231490012363,-6.847391307249097,-1.2117098682557241,-2.5614771645398378,,
,,-2.9294164402191143,4.8356040246453915,0.8488381309986011,-0.7725211648877774,1.638805443234844,2.425264713243621,2.3713571220507674,0.7723407618537976,2.5520154715447347,1.3112101878962363,-1.5018943291929077,4.83219911501989,-1.8518935816409225,-4.359191754468654,,
,,-4.97997226780268,3.033779299379759,-1.3074742400960133,-2.7409803447749823,5.095252187325556,2.013179848048452,-1.900686273119888,-4.9719497922829134,-6.818416370647185,-3.595874375823513,-3.650054931741664,9.053833709225572,-4.741084721967582,-7.6324027097901705,,
,,-5.406597586127461,-1.4704998128916884,-3.9549706757334917,-5.595253956145925,1.8844707301125254,-0.6087584078753423,-1.7448388259021925,-4.403578895660317,-7.515590489749201,-4.187150799932482,-6.763152458838704,5.4174397503792875,-6.004749005934215,-11.055794283781239,,
,,-1.701746394395073,-3.033171120839171,-4.575223000880868,-5.9967397670380365,-1.9947333162323702,0.020913586080325786,5.94123078631614,1.5066892883539253,0.28913482778330035,-1.1145454221688738,-2.838000561239298,2.9940374376316754,-0.8968942238743836,-6.991138961759688,,
,,3.8607472584459117,-0.15308167174211462,0.6934893784983558,-1.2705764495424177,-0.5817930819970059,4.496545243914284,12.389625885778287,4.768715001877496,6.8006126217750875,2.5960038708207804,10.096895836875476,5.94186075565888,8.227357626350454,5.396238615560449,,
,,6.718529905947378,3.6257623164219126,7.5399224420270485,4.5408252025111295,3.131458848050954,6.265764759967837,8.408463095629685,0.9744660103911258,4.765020925109155,3.790506272803441,18.27132560873892,7.344526330457342,12.185840594797213,14.083916495519517,,
,,5.120456984099121,4.4399600564307775,6.644198450580177,5.470389881851233,2.6009234896039004,2.1911962553364788,-1.8169045313953518,-4.125343127340386,-1.2665156375563242,1.0892951821197556,10.215627733507219,2.678318012193685,6.723696858934872,10.322172968916263,,
,,0.6787758730252307,1.4266160569241322,-1.3848716039272801,1.498537273670891,-1.1474688623701752,-1.7163734816707716,-6.14107187144235,-3.1614290417807496,-1.562881418325972,-2.495956198348537,-4.268390411684635,-1.8101391222721048,-1.393655873925951,1.4874113582556703,,
,,-2.8540136453555363,-2.721502140333655,-6.636125340109174,-2.276885021146853,-1.6110585246190112,-1.478825743115678,-2.801153744689401,1.0776191452006287,2.9830560035016305,-2.9709030806571377,-8.988546340721413,-1.2035615317042954,-4.303896041825311,-1.5814685134807291,,
,,-2.714830891578373,-4.993345059096455,-5.5619872896106415,-2.119480472745053,0.9798702721004133,-1.86538513388804,-2.334441042244009,-0.20005829882832415,1.3883363854531439,-1.669428037678216,-5.554452248631009,-1.282233130324812,-3.6626476706607036,-0.7776916868671151,,
,,-0.8369958078175159,-5.245919123312746,-3.390857771050136,0.48021699839904386,-0.18000966902232562,-5.67420150647844,-8.569057805075104,-7.1989776568731685,-8.43935659959675,-2.7531716773719523,-6.989280572795096,-7.356971868662285,-5.9067163317202045,-3.5023711164898543,,
,,-0.8918271347889686,-3.9412046848327407,-2.205300197092768,1.7102013250834887,-5.214529880164335,-7.64733197922105,-11.476563809552587,-10.052970731260245,-14.37301208083639,-5.512012858643985,-14.658208038034687,-13.370115119675532,-10.665879226265261,-7.971567944905615,,
,,-2.137321375495958,-0.3881617120836154,0.9892899804846991,1.4578673029009366,-6.373411784694994,-4.028201132801954,-4.3999143326927594,-3.530953509062627,-8.744754943691149,-5.169044559901337,-16.782758909172742,-11.099450997347631,-10.989430299442859,-7.673096183240304,,
,,-1.406477918384823,4.090875483944544,5.129757713991225,2.312513300414537,-1.68430348452803,1.3345647303838888,5.240081978438084,5.326307146331388,0.8882707851184222,-0.8839202554060961,-8.050965945639888,-2.9719575174167403,-4.6432592719079935,-3.593881275102632,,
,,0.6072106198402452,5.599027614703914,5.133309734116864,3.108917504057459,2.02571175283893,3.4824464226690566,8.178173381060574,7.944837491603295,5.275660660831875,3.1078345386249424,2.8834746710618475,2.363306187890842,2.4205382123176236,-1.3777707306044107,,
,,1.1012705066780342,2.905864719760743,1.5097436595990956,0.6515985751387063,1.0438784420481397,2.5882036473678482,5.112595204853889,5.334363536352839,6.009224687430319,4.8417383974032475,8.503968066038823,3.0218014993092055,5.7178507313453935,-1.288590628958147,,
,,0.6855191473118936,0.4516413941147448,0.6364580216106361,-2.7182035102181175,-0.05798821759844941,1.9762548582804982,1.9818118850670174,3.750609865227233,8.631859178436471,6.470147157522646,12.42210981158469,5.20787089919645,7.7551954179921125,1.2312011238787193,,
,,1.4056491942934315,2.4149691700335723,4.022297127268573,-1.5414961814257708,3.8706728619948336,2.952278330821514,1.0539731103603884,4.61702739141225,11.980442372121942,7.982088957140604,18.42512078064604,11.799668319030147,11.007609877629562,7.604617008084972,,
,,2.2472262478362097,5.195411068286461,5.286174212819944,2.937378247094472,10.892202059257784,3.3111052183094074,0.4785627012588378,4.08898054706539,10.220840180157879,6.522588645189529,21.252459182404664,16.489350092304193,12.58325623557063,12.735021597806693,,
,,1.35125025851886,2.379706329397365,0.5832596229154348,3.19996894345212,12.615949213453334,1.566603120537735,-0.5746882399495377,0.22390112841060272,1.8232929067840047,2.388565084346439,15.267834030966796,13.129851122875252,9.626926222554047,10.253028897219906,,
,,-0.22628316557472772,-3.99295666889914,-4.758736618850364,-2.8406282633700783,3.8956066854085094,0.27862665991656854,-0.3360102863349823,-3.912709158841622,-6.790378909712629,-0.8804584684779968,4.121254299704745,5.043326672432684,4.708812096870972,1.8898044041080766,,
,,-0.4485980047132614,-6.39049343215251,-4.868540759650912,-7.696006826224817,-8.242298982454997,1.373212101230635,1.473756826757409,-4.320262312049977,-7.928947839772405,-1.6798359892652428,-3.9287558033958874,-1.0964372726134997,1.7046137684837817,-2.4664730062715705,,
,,0.27723682620190004,-4.1346814567510535,-2.701544006771755,-5.6463780690772865,-12.404163081500556,1.6113673893791116,1.8518247865324469,-1.2185470901186335,-2.9519427093479464,-1.6660552693915491,-6.742937621449414,-5.807086229448217,-0.6374648007373054,0.9528560302583173,,
,,0.06721352434405503,-2.7801318566601765,-3.656698720415207,-1.272079625727912,-8.374565978378328,-1.7697229180069485,-0.8988129926971311,0.8937677057790552,-0.6809648060814482,-3.2256951097254785,-9.700607336053679,-13.588859241890603,-6.2186518475580215,2.820179301746194,,
,,-1.3263129494603447,-3.6164867752824676,-5.474621531222368,-1.0422281352835228,-4.936675003945027,-5.305017332283157,-4.09978924582137,-0.9601557916546142,-3.9672393318395507,-6.48752683325209,-15.86373468670726,-22.246524318378462,-13.779614167400752,-4.334975659411413,,
,,-2.3432059695305156,-2.9542456965530306,-2.9762482904339294,-2.8345567850618636,-5.0916825118640645,-4.6627461490879085,-4.1055686181926205,-4.226769455084636,-6.257046753945602,-8.500388932884832,-20.12078724354059,-22.853796731919388,-17.096934267695573,-13.370063572137681,,
,,-2.097618999893541,0.0225683673661905,1.82503248896235,-0.6584815924185392,-3.7619019482271483,-1.3287140754200806,-0.6712931233397512,-4.913378832796383,-3.928969773092163,-6.882712433672552,-16.85172304776573,-10.9676422687632,-13.474275188810594,-13.430815096333234,,
27.9609375,111.0,-1.1613840935370234,2.3262810943605245,2.969160260869373,4.63500370457254,2.0430730638244796,0.44321084534158217,2.594236893421666,-2.831355430098796,-1.6246193113180567,-3.331369286680143,-7.853692566170267,5.284352183363239,-6.717872993630294,-5.52595545848871,33026,89.0
27.96875,111.0,0.00930523436258568,3.1542974610841554,1.0451168913925102,6.92293519236263,8.342997359943283,-0.254119677265507,2.256204391714263,-0.13395611180513356,-1.9118511064482249,-0.6699578816395046,1.6941431900571473,12.895120555700444,-0.5514854298558305,1.2636700516225687,33026,89.0
27.9765625,111.0,1.28126857164861,4.275306798732402,1.4526056224595578,4.65899278298599,9.23073482189983,-1.2344827131672247,-0.4412294794058482,2.116441433308964,-0.6474743841228303,1.64385227664188,9.292994099750672,10.693325497347757,5.367583431411234,3.4675529756837022,33026,89.0
27.984375,111.0,1.469686862380044,4.964820950625764,4.0791799997346345,1.7976720866254965,4.102299524484891,-1.1617023086303817,-2.0247847786432516,3.0747966411778407,3.6925182526308475,5.027329426989212,13.669930873211243,9.092963455473196,10.80947934362176,4.295040066836336,33026,89.0
