Time128Hz,Epoch,AF3,F7,F3,F5,T7,P7,O1,O2,P8,T8,FC6,F4,F8,AF4,EventId,EventDate,EventDuration,ID_Chunk_Number,ID_Chunk
13.84375,55,4097.0512695313,4093.8461914063,4130.8974609375,4144.7436523438,4105.2563476563,4092.9487304688,4107.5639648438,4076.9230957031,4080.2563476563,4057.1794433594,4024.8718261719,4087.9487304688,4067.9487304688,4069.8718261719,33025,13.8446810206,0.0,0.0,
13.8515625,55,4097.3076171875,4088.4614257813,4131.5385742188,4152.5639648438,4087.0512695313,4089.8718261719,4106.1538085938,4070.2563476563,4071.794921875,4054.7436523438,4022.3076171875,4090.3845214844,4064.7436523438,4064.3588867188,33025,0.0,0.0,1.0,
13.859375,55,4099.4873046875,4096.9228515625,4133.8461914063,4152.6923828125,4090.2563476563,4091.6667480469,4110.1284179688,4081.41015625,4079.3588867188,4061.9230957031,4030.1281738281,4095.7692871094,4077.8205566406,4076.0256347656,33025,0.0,0.0,1.0,
13.8671875,55,4103.58984375,4099.7436523438,4127.3076171875,4151.1538085938,4096.0258789063,4096.0258789063,4119.7436523438,4093.4614257813,4089.1025390625,4062.1794433594,4034.6154785156,4088.8461914063,4079.3588867188,4077.0512695313,33025,0.0,0.0,1.0,
13.875,55,4105.0,4094.8718261719,4132.4360351563,4151.794921875,4089.2307128906,4093.3332519531,4121.5385742188,4093.205078125,4090.2563476563,4058.3332519531,4034.2307128906,4074.6154785156,4072.4357910156,4072.3076171875,33025,0.0,0.0,1.0,
13.8828125,55,4105.1284179688,4098.58984375,4135.2563476563,4151.9228515625,4094.8718261719,4093.4614257813,4119.7436523438,4089.2307128906,4090.8974609375,4062.8205566406,4036.9230957031,4071.9230957031,4076.41015625,4080.7692871094,33025,0.0,0.0,1.0,
13.890625,55,4108.4614257813,4098.8461914063,4124.1025390625,4151.1538085938,4097.4360351563,4098.3334960938,4123.0771484375,4089.1025390625,4089.1025390625,4065.7692871094,4040.0,4074.6154785156,4077.5642089844,4082.6923828125,33025,0.0,0.0,1.0,
13.8984375,55,4108.58984375,4090.7692871094,4122.3076171875,4151.794921875,4084.2307128906,4096.794921875,4123.8461914063,4091.1538085938,4088.9743652344,4067.8205566406,4042.0512695313,4073.7180175781,4075.1281738281,4080.5129394531,33025,0.0,0.0,1.0,
13.90625,55,4108.9741210938,4095.8974609375,4131.6665039063,4151.2822265625,4088.9743652344,4095.1281738281,4121.0258789063,4094.3588867188,4093.4614257813,4073.58984375,4045.3845214844,4073.8461914063,4080.3845214844,4089.6154785156,33025,0.0,0.0,1.0,
13.9140625,55,4110.2563476563,4105.8974609375,4142.0512695313,4151.1538085938,4110.8974609375,4104.4873046875,4125.8974609375,4097.0512695313,4097.4360351563,4075.5129394531,4046.9230957031,4079.3588867188,4083.7180175781,4095.0,33025,0.0,0.0,1.0,
13.921875,55,4108.58984375,4100.0,4120.2563476563,4153.3334960938,4108.9741210938,4110.1284179688,4130.384765625,4095.8974609375,4095.7692871094,4074.1025390625,4045.1281738281,4083.7180175781,4082.4357910156,4089.1025390625,33025,0.0,0.0,1.0,
13.9296875,55,4105.1284179688,4094.2307128906,4128.3334960938,4152.5639648438,4089.3588867188,4101.9228515625,4126.41015625,4093.58984375,4097.8203125,4074.1025390625,4045.2563476563,4077.1794433594,4086.5385742188,4088.58984375,33025,0.0,0.0,1.0,
13.9375,55,4103.0771484375,4104.615234375,4232.8203125,4151.6665039063,4091.1538085938,4098.3334960938,4122.8203125,4094.6154785156,4104.7436523438,4076.9230957031,4053.0769042969,4070.2563476563,4094.4870605469,4093.8461914063,33025,0.0,0.0,1.0,
13.9453125,55,4106.5385742188,4109.3588867188,4280.384765625,4153.4614257813,4100.1284179688,4097.6923828125,4119.8715820313,4091.2819824219,4100.7690429688,4076.6667480469,4056.0256347656,4081.1538085938,4092.8205566406,4092.3076171875,33025,0.0,0.0,1.0,
13.953125,55,4105.8974609375,4099.2309570313,4194.3588867188,4147.3076171875,4092.5642089844,4095.7692871094,4120.1284179688,4082.3076171875,4089.8718261719,4073.205078125,4050.0,4091.5385742188,4087.3076171875,4087.8205566406,33025,0.0,0.0,1.0,
13.9609375,55,4100.384765625,4092.3076171875,4138.0771484375,4140.5126953125,4088.4614257813,4100.1284179688,4123.58984375,4081.2819824219,4085.8974609375,4070.7692871094,4050.7692871094,4089.6154785156,4088.58984375,4088.3332519531,33025,0.0,0.0,1.0,
13.96875,55,4103.0771484375,4093.205078125,4160.384765625,4146.5385742188,4092.4357910156,4099.615234375,4121.5385742188,4087.6923828125,4090.7692871094,4072.1794433594,4058.205078125,4096.794921875,4093.0769042969,4098.58984375,33025,0.0,0.0,1.0,
13.9765625,55,4105.6411132813,4094.4870605469,4151.1538085938,4148.205078125,4088.9743652344,4094.2307128906,4125.5126953125,4090.3845214844,4102.3076171875,4077.9487304688,4060.1281738281,4110.7690429688,4094.6154785156,4108.0771484375,33025,0.0,0.0,1.0,
13.984375,55,4106.9228515625,4095.8974609375,4132.8203125,4140.7690429688,4094.1025390625,4100.5126953125,4135.384765625,4090.2563476563,4106.9228515625,4082.1794433594,4062.4357910156,4110.7690429688,4091.9230957031,4110.5126953125,33025,0.0,0.0,1.0,
13.9921875,55,4110.1284179688,4098.8461914063,4139.7436523438,4145.0,4103.4614257813,4109.7436523438,4132.3076171875,4090.8974609375,4099.615234375,4082.5642089844,4072.1794433594,4106.1538085938,4096.0258789063,4115.0,33025,0.0,0.0,1.0,
14.0,56,4111.41015625,4098.58984375,4132.8203125,4154.3588867188,4094.6154785156,4102.3076171875,4126.5385742188,4091.9230957031,4099.4873046875,4085.1281738281,4076.2819824219,4113.8461914063,4105.6411132813,4128.8461914063,33025,0.0,0.0,1.0,
14.0078125,56,4114.1025390625,4101.0258789063,4135.1284179688,4154.2309570313,4092.4357910156,4098.7177734375,4135.0,4093.58984375,4106.2822265625,4090.3845214844,4070.7692871094,4118.0771484375,4108.7177734375,4142.3076171875,33025,0.0,0.0,1.0,
14.015625,56,4113.8461914063,4108.0771484375,4138.205078125,4151.794921875,4108.58984375,4108.3334960938,4141.41015625,4092.1794433594,4098.0771484375,4086.0256347656,4067.1794433594,4113.0771484375,4107.3076171875,4137.1796875,33025,0.0,0.0,1.0,
14.0234375,56,4111.0258789063,4105.5126953125,4126.0258789063,4146.2822265625,4108.8461914063,4107.4360351563,4134.4873046875,4087.8205566406,4086.9230957031,4076.0256347656,4067.0512695313,4117.6923828125,4105.8974609375,4124.3588867188,33025,0.0,0.0,1.0,
14.03125,56,4114.2309570313,4100.7690429688,4124.4873046875,4141.5385742188,4087.6923828125,4097.9487304688,4131.5385742188,4090.1281738281,4092.0512695313,4081.1538085938,4069.6154785156,4134.4873046875,4105.8974609375,4128.7177734375,33025,0.0,0.0,1.0,
14.0390625,56,4119.8715820313,4106.6665039063,4133.7177734375,4144.4873046875,4085.6411132813,4101.0258789063,4143.205078125,4094.3588867188,4096.794921875,4093.205078125,4076.1538085938,4146.6665039063,4109.4873046875,4142.5639648438,33025,0.0,0.0,1.0,
14.046875,56,4118.7177734375,4107.1796875,4130.2563476563,4143.7177734375,4100.6411132813,4112.5639648438,4153.4614257813,4093.7180175781,4093.7180175781,4090.8974609375,4076.6667480469,4142.5639648438,4110.2563476563,4139.7436523438,33025,0.0,0.0,1.0,
14.0546875,56,4113.9741210938,4101.0258789063,4123.205078125,4137.8203125,4102.8203125,4106.794921875,4143.8461914063,4098.4614257813,4101.6665039063,4088.0769042969,4073.4614257813,4135.2563476563,4109.1025390625,4134.2309570313,33025,0.0,0.0,1.0,
14.0625,56,4117.8203125,4106.9228515625,4130.8974609375,4138.0771484375,4093.8461914063,4092.1794433594,4126.9228515625,4104.7436523438,4114.1025390625,4096.2822265625,4077.9487304688,4138.9741210938,4119.2309570313,4140.0,33025,0.0,0.0,1.0,
14.0703125,56,4121.9228515625,4110.6411132813,4137.0512695313,4141.5385742188,4093.205078125,4094.8718261719,4128.0771484375,4097.5639648438,4107.9487304688,4097.4360351563,4082.6923828125,4140.8974609375,4124.3588867188,4141.1538085938,33025,0.0,0.0,1.0,
14.078125,56,4113.8461914063,4098.3334960938,4129.2309570313,4140.1284179688,4098.8461914063,4105.2563476563,4136.794921875,4085.2563476563,4092.4357910156,4088.7180175781,4075.2563476563,4126.41015625,4110.2563476563,4140.6411132813,33025,0.0,0.0,1.0,
14.0859375,56,4109.7436523438,4093.3332519531,4120.1284179688,4136.6665039063,4092.5642089844,4104.2309570313,4138.8461914063,4082.4357910156,4088.205078125,4087.0512695313,4066.5385742188,4116.5385742188,4104.1025390625,4136.9228515625,33025,0.0,0.0,1.0,
14.09375,56,4111.6665039063,4102.3076171875,4117.0512695313,4138.4614257813,4087.4357910156,4101.794921875,4141.5385742188,4087.0512695313,4092.0512695313,4091.2819824219,4070.6411132813,4123.3334960938,4109.7436523438,4127.0512695313,33025,0.0,0.0,1.0,1.0
14.1015625,56,4111.5385742188,4108.205078125,4118.58984375,4140.7690429688,4098.58984375,4108.9741210938,4144.615234375,4089.4870605469,4096.5385742188,4090.3845214844,4077.0512695313,4124.2309570313,4108.8461914063,4127.5639648438,33025,0.0,0.0,1.0,1.0
14.109375,56,4112.9487304688,4103.9741210938,4121.41015625,4138.4614257813,4109.615234375,4107.3076171875,4140.0,4089.6154785156,4100.5126953125,4092.5642089844,4078.9743652344,4116.9228515625,4110.6411132813,4138.0771484375,33025,0.0,0.0,1.0,1.0
14.1171875,56,4117.6923828125,4105.1284179688,4120.5126953125,4145.6411132813,4107.3076171875,4095.0,4133.7177734375,4094.4870605469,4105.6411132813,4104.8715820313,4089.2307128906,4126.0258789063,4120.384765625,4145.8974609375,33025,0.0,0.0,1.0,2.0
14.125,56,4125.0,4116.41015625,4119.2309570313,4158.4614257813,4108.3334960938,4094.1025390625,4137.4360351563,4098.0771484375,4105.0,4108.7177734375,4095.5129394531,4144.7436523438,4125.5126953125,4153.7177734375,33025,0.0,0.0,1.0,2.0
14.1328125,56,4120.7690429688,4113.7177734375,4116.6665039063,4150.384765625,4109.1025390625,4097.9487304688,4139.615234375,4092.8205566406,4098.0771484375,4095.3845214844,4080.6411132813,4139.2309570313,4120.8974609375,4157.6923828125,33025,0.0,0.0,1.0,2.0
14.140625,56,4110.2563476563,4097.6923828125,4115.7690429688,4137.6923828125,4088.58984375,4093.0769042969,4138.9741210938,4097.3076171875,4101.0258789063,4091.1538085938,4072.1794433594,4123.7177734375,4115.7690429688,4148.4614257813,33025,0.0,0.0,1.0,2.0
14.1484375,56,4111.6665039063,4097.5639648438,4118.9741210938,4142.0512695313,4077.4357910156,4090.5129394531,4147.6923828125,4111.9228515625,4112.4360351563,4102.9487304688,4085.0,4131.6665039063,4117.9487304688,4140.2563476563,33025,0.0,0.0,1.0,3.0
14.15625,56,4114.3588867188,4107.5639648438,4112.6923828125,4144.4873046875,4088.58984375,4094.8718261719,4155.384765625,4112.0512695313,4113.8461914063,4106.1538085938,4092.8205566406,4142.5639648438,4122.8203125,4143.9741210938,33025,0.0,0.0,1.0,3.0
14.1640625,56,4118.0771484375,4108.7177734375,4114.1025390625,4142.6923828125,4096.6665039063,4098.9741210938,4155.1284179688,4106.9228515625,4108.8461914063,4102.8203125,4090.5129394531,4137.5639648438,4124.615234375,4152.1796875,33025,0.0,0.0,1.0,3.0
14.171875,56,4123.58984375,4110.8974609375,4130.8974609375,4150.5126953125,4101.0258789063,4106.1538085938,4157.1796875,4112.4360351563,4108.7177734375,4106.41015625,4088.8461914063,4143.58984375,4125.2563476563,4157.5639648438,33025,0.0,0.0,1.0,3.0
14.1796875,56,4123.8461914063,4113.58984375,4134.1025390625,4157.5639648438,4110.0,4111.6665039063,4160.0,4112.0512695313,4108.0771484375,4109.2309570313,4090.2563476563,4154.2309570313,4125.5126953125,4156.0258789063,33025,0.0,0.0,1.0,4.0
14.1875,56,4122.1796875,4109.2309570313,4123.8461914063,4156.794921875,4106.41015625,4105.7690429688,4154.1025390625,4106.2822265625,4109.7436523438,4105.6411132813,4099.1025390625,4148.58984375,4124.4873046875,4151.794921875,33025,0.0,0.0,1.0,4.0
14.1953125,56,4122.0512695313,4109.7436523438,4121.9228515625,4154.4873046875,4096.2822265625,4103.8461914063,4152.9487304688,4113.7177734375,4117.8203125,4107.6923828125,4107.3076171875,4152.0512695313,4130.2563476563,4152.9487304688,33025,0.0,0.0,1.0,4.0
14.203125,56,4126.41015625,4111.5385742188,4125.5126953125,4154.615234375,4100.6411132813,4108.0771484375,4159.7436523438,4126.1538085938,4125.0,4119.3588867188,4107.1796875,4172.3076171875,4140.2563476563,4164.4873046875,33025,0.0,0.0,1.0,4.0
14.2109375,56,4129.615234375,4106.0258789063,4126.41015625,4154.4873046875,4099.4873046875,4102.5639648438,4157.5639648438,4121.2822265625,4123.4614257813,4121.2822265625,4106.2822265625,4176.1538085938,4141.0258789063,4170.0,33025,0.0,0.0,1.0,5.0
14.21875,56,4128.0771484375,4108.3334960938,4128.58984375,4153.4614257813,4094.6154785156,4098.0771484375,4150.2563476563,4107.6923828125,4113.205078125,4111.1538085938,4107.4360351563,4161.9228515625,4138.58984375,4162.6923828125,33025,0.0,0.0,1.0,5.0
14.2265625,56,4128.4614257813,4119.8715820313,4130.8974609375,4154.7436523438,4103.0771484375,4104.7436523438,4152.0512695313,4107.9487304688,4108.58984375,4107.6923828125,4109.1025390625,4156.6665039063,4141.5385742188,4158.205078125,33025,0.0,0.0,1.0,5.0
14.234375,56,4127.3076171875,4122.6923828125,4128.0771484375,4154.1025390625,4105.1284179688,4108.9741210938,4156.794921875,4116.0258789063,4114.2309570313,4111.0258789063,4108.4614257813,4159.615234375,4143.205078125,4158.9741210938,33025,0.0,0.0,1.0,5.0
14.2421875,56,4125.6411132813,4113.205078125,4122.5639648438,4147.4360351563,4092.6923828125,4103.9741210938,4155.2563476563,4111.1538085938,4112.4360351563,4107.3076171875,4100.6411132813,4151.6665039063,4139.2309570313,4156.6665039063,33025,0.0,0.0,1.0,6.0
14.25,57,4125.384765625,4106.794921875,4118.58984375,4141.5385742188,4090.8974609375,4104.4873046875,4153.4614257813,4102.5639648438,4111.0258789063,4105.6411132813,4092.6923828125,4139.8715820313,4136.794921875,4149.7436523438,33025,0.0,0.0,1.0,6.0
14.2578125,57,4123.7177734375,4107.6923828125,4120.8974609375,4139.7436523438,4097.1796875,4105.7690429688,4154.7436523438,4109.615234375,4122.5639648438,4111.794921875,4095.8974609375,4141.2822265625,4140.384765625,4145.2563476563,33025,0.0,0.0,1.0,6.0
14.265625,57,4125.0,4108.4614257813,4120.384765625,4140.7690429688,4089.6154785156,4098.7177734375,4150.6411132813,4113.0771484375,4122.3076171875,4110.2563476563,4096.41015625,4144.1025390625,4141.5385742188,4143.205078125,33025,0.0,0.0,1.0,6.0
14.2734375,57,4122.0512695313,4105.2563476563,4113.205078125,4138.3334960938,4091.0256347656,4098.9741210938,4146.1538085938,4095.5129394531,4105.5126953125,4103.58984375,4085.7692871094,4134.2309570313,4132.4360351563,4136.41015625,33025,0.0,0.0,1.0,7.0
14.28125,57,4117.6923828125,4104.4873046875,4115.5126953125,4138.0771484375,4104.7436523438,4108.205078125,4150.5126953125,4087.9487304688,4100.0,4103.58984375,4082.9487304688,4131.5385742188,4130.7690429688,4128.58984375,33025,0.0,0.0,1.0,7.0
14.2890625,57,4117.1796875,4110.5126953125,4126.794921875,4144.615234375,4102.8203125,4106.794921875,4154.8715820313,4103.7177734375,4109.4873046875,4108.0771484375,4089.8718261719,4142.8203125,4139.1025390625,4131.794921875,33025,0.0,0.0,1.0,7.0
14.296875,57,4116.41015625,4112.3076171875,4121.41015625,4145.0,4094.3588867188,4098.58984375,4146.9228515625,4107.3076171875,4110.5126953125,4108.58984375,4090.5129394531,4148.58984375,4134.3588867188,4139.7436523438,33025,0.0,0.0,1.0,7.0
14.3046875,57,4117.0512695313,4105.8974609375,4111.794921875,4139.7436523438,4091.1538085938,4100.0,4138.4614257813,4093.58984375,4103.3334960938,4107.4360351563,4088.4614257813,4138.205078125,4127.1796875,4133.7177734375,33025,0.0,0.0,1.0,8.0
14.3125,57,4115.1284179688,4106.1538085938,4115.7690429688,4140.2563476563,4092.5642089844,4105.7690429688,4146.5385742188,4091.794921875,4103.58984375,4108.4614257813,4091.794921875,4122.5639648438,4134.7436523438,4124.7436523438,33025,0.0,0.0,1.0,8.0
14.3203125,57,4114.2309570313,4111.794921875,4120.7690429688,4142.8203125,4101.794921875,4107.9487304688,4155.7690429688,4098.7177734375,4107.4360351563,4107.4360351563,4092.6923828125,4124.3588867188,4140.1284179688,4128.3334960938,33025,0.0,0.0,1.0,8.0
14.328125,57,4118.8461914063,4112.6923828125,4121.2822265625,4143.4614257813,4110.5126953125,4106.9228515625,4151.41015625,4101.794921875,4106.9228515625,4107.4360351563,4094.7436523438,4137.3076171875,4135.8974609375,4136.6665039063,33025,0.0,0.0,1.0,8.0
14.3359375,57,4122.9487304688,4111.5385742188,4120.6411132813,4145.5126953125,4109.615234375,4107.5639648438,4150.5126953125,4106.5385742188,4108.7177734375,4111.0258789063,4102.9487304688,4139.4873046875,4137.3076171875,4140.0,33025,0.0,0.0,1.0,9.0
14.34375,57,4122.9487304688,4109.4873046875,4120.2563476563,4144.3588867188,4107.5639648438,4111.5385742188,4159.1025390625,4109.4873046875,4112.1796875,4112.9487304688,4101.41015625,4134.615234375,4137.4360351563,4139.3588867188,33025,0.0,0.0,1.0,9.0
14.3515625,57,4117.6923828125,4105.8974609375,4120.7690429688,4138.8461914063,4102.9487304688,4107.4360351563,4157.1796875,4106.794921875,4110.384765625,4111.9228515625,4093.9743652344,4132.9487304688,4135.5126953125,4141.1538085938,33025,0.0,0.0,1.0,9.0
14.359375,57,4115.384765625,4105.5126953125,4120.0,4133.8461914063,4100.2563476563,4100.6411132813,4148.7177734375,4105.6411132813,4112.6923828125,4110.384765625,4094.3588867188,4135.8974609375,4139.4873046875,4140.1284179688,33025,0.0,0.0,1.0,9.0
14.3671875,57,4117.0512695313,4108.58984375,4117.1796875,4132.4360351563,4106.41015625,4103.8461914063,4152.0512695313,4107.0512695313,4118.205078125,4110.384765625,4095.2563476563,4148.4614257813,4134.1025390625,4134.7436523438,33025,0.0,0.0,1.0,10.0
14.375,57,4116.794921875,4116.1538085938,4117.6923828125,4135.5126953125,4100.1284179688,4106.9228515625,4155.2563476563,4108.3334960938,4120.1284179688,4113.58984375,4092.0512695313,4165.5126953125,4123.8461914063,4135.0,33025,0.0,0.0,1.0,10.0
14.3828125,57,4118.9741210938,4119.1025390625,4122.8203125,4136.794921875,4091.9230957031,4103.7177734375,4153.205078125,4110.8974609375,4119.4873046875,4115.384765625,4093.0769042969,4172.4360351563,4126.6665039063,4139.2309570313,33025,0.0,0.0,1.0,10.0
14.390625,57,4121.2822265625,4110.8974609375,4119.2309570313,4135.1284179688,4110.2563476563,4109.4873046875,4157.6923828125,4116.0258789063,4117.5639648438,4110.8974609375,4093.205078125,4177.4360351563,4133.3334960938,4138.7177734375,33025,0.0,0.0,1.0,10.0
14.3984375,57,4121.41015625,4105.384765625,4112.4360351563,4136.1538085938,4120.7690429688,4114.615234375,4163.0771484375,4120.5126953125,4117.4360351563,4109.3588867188,4089.8718261719,4187.4360351563,4133.8461914063,4138.3334960938,33025,0.0,0.0,1.0,11.0
14.40625,57,4118.205078125,4109.615234375,4120.7690429688,4131.6665039063,4108.4614257813,4106.6665039063,4155.1284179688,4118.8461914063,4121.0258789063,4112.8203125,4093.58984375,4188.3334960938,4135.7690429688,4141.1538085938,33025,0.0,0.0,1.0,11.0
14.4140625,57,4112.4360351563,4105.6411132813,4117.1796875,4111.5385742188,4103.3334960938,4105.1284179688,4147.0512695313,4112.1796875,4116.1538085938,4110.5126953125,4092.9487304688,4176.794921875,4134.4873046875,4132.9487304688,33025,0.0,0.0,1.0,11.0
14.421875,57,4112.4360351563,4096.0258789063,4101.6665039063,4093.4614257813,4102.1796875,4107.5639648438,4146.5385742188,4102.5639648438,4102.4360351563,4103.9741210938,4081.1538085938,4166.794921875,4124.8715820313,4119.615234375,33025,0.0,0.0,1.0,11.0
14.4296875,57,4115.8974609375,4101.5385742188,4111.1538085938,4092.9487304688,4098.205078125,4099.7436523438,4141.6665039063,4095.7692871094,4098.205078125,4103.58984375,4080.2563476563,4170.8974609375,4121.5385742188,4123.0771484375,33025,0.0,0.0,1.0,12.0
14.4375,57,4116.5385742188,4105.8974609375,4122.5639648438,4095.2563476563,4098.8461914063,4096.5385742188,4140.5126953125,4098.7177734375,4103.0771484375,4108.205078125,4087.8205566406,4176.9228515625,4127.1796875,4132.9487304688,33025,0.0,0.0,1.0,12.0
14.4453125,57,4115.384765625,4093.9743652344,4109.3588867188,4089.1025390625,4092.3076171875,4100.5126953125,4145.384765625,4106.9228515625,4111.9228515625,4109.1025390625,4088.205078125,4168.4614257813,4129.615234375,4128.8461914063,33025,0.0,0.0,1.0,12.0
14.453125,57,4113.58984375,4089.3588867188,4100.384765625,4086.1538085938,4090.5129394531,4096.9228515625,4143.3334960938,4109.7436523438,4118.58984375,4107.1796875,4086.9230957031,4160.384765625,4125.8974609375,4123.7177734375,33025,0.0,0.0,1.0,12.0
14.4609375,57,4112.5639648438,4092.4357910156,4105.5126953125,4085.5129394531,4093.7180175781,4091.0256347656,4138.58984375,4100.2563476563,4113.8461914063,4108.4614257813,4084.1025390625,4156.5385742188,4123.7177734375,4126.1538085938,33025,0.0,0.0,1.0,13.0
14.46875,57,4106.9228515625,4079.2307128906,4100.8974609375,4076.6667480469,4084.4870605469,4092.0512695313,4138.8461914063,4087.3076171875,4098.9741210938,4106.0258789063,4072.9487304688,4145.5126953125,4120.7690429688,4119.1025390625,33025,0.0,0.0,1.0,13.0
14.4765625,57,4101.9228515625,4071.2819824219,4096.5385742188,4070.6411132813,4082.4357910156,4095.0,4139.8715820313,4091.5385742188,4094.1025390625,4101.794921875,4069.1025390625,4133.9741210938,4117.6923828125,4115.0,33025,0.0,0.0,1.0,13.0
14.484375,57,4110.0,4087.6923828125,4103.9741210938,4077.4357910156,4094.1025390625,4095.7692871094,4140.5126953125,4107.6923828125,4104.8715820313,4104.7436523438,4073.58984375,4125.6411132813,4118.7177734375,4126.2822265625,33025,0.0,0.0,1.0,13.0
14.4921875,57,4114.7436523438,4097.0512695313,4103.4614257813,4087.0512695313,4094.6154785156,4094.1025390625,4143.0771484375,4110.1284179688,4110.5126953125,4110.384765625,4077.5642089844,4123.9741210938,4123.0771484375,4130.8974609375,33025,0.0,0.0,1.0,14.0
14.5,58,4109.615234375,4091.6667480469,4097.0512695313,4090.5129394531,4093.0769042969,4093.7180175781,4137.6923828125,4099.1025390625,4106.794921875,4108.3334960938,4083.8461914063,4133.4614257813,4124.3588867188,4121.6665039063,33025,0.0,0.0,1.0,14.0
14.5078125,58,4111.0258789063,4092.5642089844,4099.615234375,4090.7692871094,4103.4614257813,4100.5126953125,4135.5126953125,4098.4614257813,4105.6411132813,4106.6665039063,4082.6923828125,4141.5385742188,4122.4360351563,4118.9741210938,33025,0.0,0.0,1.0,14.0
14.515625,58,4116.2822265625,4098.7177734375,4108.9741210938,4092.3076171875,4110.0,4108.8461914063,4148.0771484375,4108.8461914063,4109.7436523438,4111.794921875,4079.4870605469,4139.615234375,4125.384765625,4125.384765625,33025,0.0,0.0,1.0,14.0
14.5234375,58,4118.205078125,4098.3334960938,4111.9228515625,4093.0769042969,4107.1796875,4108.3334960938,4153.0771484375,4110.0,4109.8715820313,4112.5639648438,4083.8461914063,4140.2563476563,4123.8461914063,4126.6665039063,33025,0.0,0.0,1.0,15.0
14.53125,58,4113.58984375,4092.6923828125,4106.0258789063,4091.794921875,4100.5126953125,4099.4873046875,4142.4360351563,4098.9741210938,4104.8715820313,4107.4360351563,4083.9743652344,4141.1538085938,4113.8461914063,4121.6665039063,33025,0.0,0.0,1.0,15.0
14.5390625,58,4110.7690429688,4087.9487304688,4099.4873046875,4091.41015625,4092.6923828125,4090.1281738281,4133.58984375,4093.9743652344,4100.8974609375,4104.4873046875,4076.0256347656,4138.205078125,4113.3334960938,4115.6411132813,33025,0.0,0.0,1.0,15.0
14.546875,58,4113.58984375,4087.8205566406,4096.6665039063,4090.2563476563,4095.6411132813,4092.5642089844,4136.6665039063,4103.0771484375,4105.5126953125,4105.2563476563,4074.6154785156,4136.6665039063,4118.7177734375,4116.9228515625,33025,0.0,0.0,1.0,15.0
14.5546875,58,4115.6411132813,4095.8974609375,4101.0258789063,4090.2563476563,4103.3334960938,4101.41015625,4139.8715820313,4107.5639648438,4108.4614257813,4107.0512695313,4078.58984375,4134.4873046875,4114.8715820313,4125.6411132813,33025,0.0,0.0,1.0,16.0
14.5625,58,4118.7177734375,4099.8715820313,4109.4873046875,4094.8718261719,4102.5639648438,4104.7436523438,4139.8715820313,4099.7436523438,4097.5639648438,4106.1538085938,4077.6923828125,4142.5639648438,4112.5639648438,4127.0512695313,33025,0.0,0.0,1.0,16.0
14.5703125,58,4113.4614257813,4092.0512695313,4105.7690429688,4092.5642089844,4096.5385742188,4108.8461914063,4142.0512695313,4098.58984375,4093.9743652344,4104.4873046875,4077.6923828125,4161.5385742188,4119.2309570313,4121.5385742188,33025,0.0,0.0,1.0,16.0
14.578125,58,4111.5385742188,4093.8461914063,4102.0512695313,4088.58984375,4097.3076171875,4106.794921875,4142.4360351563,4110.2563476563,4110.2563476563,4112.6923828125,4084.7436523438,4177.4360351563,4123.3334960938,4122.8203125,33025,0.0,0.0,1.0,16.0
14.5859375,58,4121.2822265625,4108.205078125,4115.2563476563,4099.4873046875,4104.7436523438,4095.2563476563,4138.205078125,4116.6665039063,4118.205078125,4125.1284179688,4095.8974609375,4189.3588867188,4125.384765625,4131.2822265625,33025,0.0,0.0,1.0,17.0
14.59375,58,4120.384765625,4112.1796875,4120.7690429688,4107.6923828125,4111.2822265625,4092.5642089844,4131.5385742188,4108.7177734375,4106.794921875,4120.8974609375,4098.7177734375,4183.7177734375,4127.1796875,4128.9741210938,33025,0.0,0.0,1.0,17.0
14.6015625,58,4117.0512695313,4104.2309570313,4110.384765625,4097.0512695313,4103.8461914063,4097.5639648438,4128.58984375,4098.4614257813,4096.794921875,4107.6923828125,4087.3076171875,4148.205078125,4120.5126953125,4115.6411132813,33025,0.0,0.0,1.0,17.0
14.609375,58,4121.41015625,4098.205078125,4105.5126953125,4089.4870605469,4088.3332519531,4093.9743652344,4127.5639648438,4097.6923828125,4094.6154785156,4105.5126953125,4080.8974609375,4125.6411132813,4113.0771484375,4113.8461914063,33025,0.0,0.0,1.0,17.0
14.6171875,58,4118.8461914063,4091.6667480469,4103.205078125,4091.0256347656,4089.8718261719,4087.5642089844,4126.794921875,4102.5639648438,4094.3588867188,4107.5639648438,4086.9230957031,4138.0771484375,4112.6923828125,4123.4614257813,33025,0.0,0.0,1.0,18.0
14.625,58,4112.3076171875,4089.1025390625,4098.7177734375,4086.794921875,4098.7177734375,4095.0,4131.9228515625,4103.7177734375,4097.9487304688,4106.794921875,4092.0512695313,4140.6411132813,4112.9487304688,4125.6411132813,33025,0.0,0.0,1.0,18.0
14.6328125,58,4111.41015625,4091.9230957031,4099.3588867188,4085.1281738281,4096.6665039063,4105.7690429688,4140.384765625,4104.1025390625,4105.8974609375,4107.4360351563,4091.1538085938,4122.6923828125,4108.7177734375,4119.3588867188,33025,0.0,0.0,1.0,18.0
14.640625,58,4110.7690429688,4089.3588867188,4100.1284179688,4089.3588867188,4096.2822265625,4102.1796875,4139.2309570313,4103.3334960938,4109.1025390625,4111.1538085938,4088.3332519531,4119.3588867188,4105.2563476563,4115.384765625,33025,0.0,0.0,1.0,18.0
14.6484375,58,4108.8461914063,4090.7692871094,4100.7690429688,4088.9743652344,4105.6411132813,4094.3588867188,4129.615234375,4098.7177734375,4107.6923828125,4118.4614257813,4093.9743652344,4137.0512695313,4113.3334960938,4118.0771484375,33025,0.0,0.0,1.0,19.0
14.65625,58,4113.7177734375,4103.205078125,4109.7436523438,4092.5642089844,4111.2822265625,4100.2563476563,4131.2822265625,4103.0771484375,4113.9741210938,4125.7690429688,4106.6665039063,4153.0771484375,4125.2563476563,4130.384765625,33025,0.0,0.0,1.0,19.0
14.6640625,58,4120.2563476563,4111.5385742188,4113.9741210938,4102.9487304688,4110.2563476563,4109.1025390625,4138.7177734375,4116.9228515625,4120.1284179688,4126.1538085938,4098.0771484375,4156.6665039063,4125.8974609375,4140.5126953125,33025,0.0,0.0,1.0,19.0
14.671875,58,4119.3588867188,4107.6923828125,4103.7177734375,4105.6411132813,4109.2309570313,4105.7690429688,4138.4614257813,4122.3076171875,4118.8461914063,4121.1538085938,4071.6667480469,4151.0258789063,4120.384765625,4136.6665039063,33025,0.0,0.0,1.0,19.0
14.6796875,58,4121.5385742188,4103.7177734375,4104.1025390625,4103.3334960938,4106.6665039063,4102.0512695313,4138.58984375,4122.9487304688,4121.6665039063,4121.6665039063,4074.8718261719,4150.384765625,4122.0512695313,4139.1025390625,33025,0.0,0.0,1.0,20.0
14.6875,58,4127.6923828125,4109.1025390625,4121.6665039063,4106.5385742188,4107.4360351563,4104.7436523438,4140.8974609375,4124.4873046875,4126.794921875,4126.5385742188,4093.7180175781,4158.0771484375,4129.3588867188,4151.5385742188,33025,0.0,0.0,1.0,20.0
14.6953125,58,4130.8974609375,4108.58984375,4122.3076171875,4108.0771484375,4106.41015625,4104.8715820313,4131.5385742188,4113.58984375,4116.6665039063,4120.8974609375,4081.1538085938,4151.5385742188,4125.1284179688,4145.2563476563,33025,0.0,0.0,1.0,20.0
14.703125,58,4131.2822265625,4096.5385742188,4106.5385742188,4100.6411132813,4103.58984375,4103.3334960938,4121.6665039063,4098.8461914063,4102.8203125,4108.0771484375,4058.3332519531,4129.8715820313,4107.8203125,4122.5639648438,33025,0.0,0.0,1.0,20.0
14.7109375,58,4120.7690429688,4086.794921875,4098.7177734375,4091.5385742188,4107.4360351563,4103.58984375,4124.7436523438,4093.9743652344,4099.615234375,4102.9487304688,4052.9487304688,4112.8203125,4097.3076171875,4112.4360351563,33025,0.0,0.0,1.0,21.0
14.71875,58,4115.5126953125,4092.3076171875,4103.8461914063,4096.9228515625,4111.2822265625,4102.8203125,4125.2563476563,4092.5642089844,4095.2563476563,4105.5126953125,4062.3076171875,4119.3588867188,4100.384765625,4120.1284179688,33025,0.0,0.0,1.0,21.0
14.7265625,58,4123.58984375,4107.0512695313,4115.5126953125,4111.0258789063,4109.8715820313,4099.4873046875,4126.0258789063,4095.5129394531,4095.0,4110.8974609375,4082.0512695313,4144.615234375,4108.8461914063,4133.0771484375,33025,0.0,0.0,1.0,21.0
14.734375,58,4126.794921875,4106.6665039063,4118.205078125,4107.4360351563,4108.8461914063,4098.205078125,4134.4873046875,4106.2822265625,4105.2563476563,4119.2309570313,4092.0512695313,4157.3076171875,4115.2563476563,4140.1284179688,33025,0.0,0.0,1.0,21.0
14.7421875,58,4122.1796875,4091.1538085938,4111.2822265625,4096.794921875,4107.9487304688,4100.7690429688,4137.8203125,4110.0,4112.3076171875,4122.5639648438,4092.5642089844,4151.41015625,4119.7436523438,4136.9228515625,33025,0.0,0.0,1.0,22.0
14.75,59,4121.41015625,4090.8974609375,4111.41015625,4101.5385742188,4105.2563476563,4104.4873046875,4136.41015625,4106.2822265625,4111.6665039063,4120.7690429688,4106.794921875,4155.384765625,4125.5126953125,4137.5639648438,33025,0.0,0.0,1.0,22.0
14.7578125,59,4131.41015625,4107.3076171875,4124.3588867188,4110.1284179688,4109.1025390625,4107.4360351563,4139.2309570313,4113.4614257813,4117.5639648438,4128.0771484375,4124.7436523438,4170.1284179688,4137.8203125,4148.7177734375,33025,0.0,0.0,1.0,22.0
14.765625,59,4134.2309570313,4113.3334960938,4130.0,4112.1796875,4112.9487304688,4106.5385742188,4138.3334960938,4120.384765625,4126.6665039063,4138.0771484375,4130.7690429688,4172.3076171875,4147.6923828125,4155.1284179688,33025,0.0,0.0,1.0,22.0
14.7734375,59,4126.1538085938,4105.7690429688,4122.8203125,4108.0771484375,4110.384765625,4105.384765625,4135.0,4114.8715820313,4126.0258789063,4139.3588867188,4136.0258789063,4168.58984375,4146.2822265625,4154.2309570313,33025,0.0,0.0,1.0,23.0
14.78125,59,4125.5126953125,4102.0512695313,4122.8203125,4098.8461914063,4108.3334960938,4107.3076171875,4136.6665039063,4108.4614257813,4122.0512695313,4137.0512695313,4144.615234375,4171.1538085938,4146.6665039063,4150.7690429688,33025,0.0,0.0,1.0,23.0
14.7890625,59,4128.3334960938,4105.0,4130.1284179688,4091.794921875,4106.41015625,4106.1538085938,4135.1284179688,4103.9741210938,4116.0258789063,4135.2563476563,4149.8715820313,4171.41015625,4151.0258789063,4150.384765625,33025,0.0,0.0,1.0,23.0
14.796875,59,4131.0258789063,4103.205078125,4135.8974609375,4095.3845214844,4109.2309570313,4110.384765625,4140.7690429688,4110.0,4122.1796875,4144.615234375,4165.1284179688,4181.1538085938,4160.8974609375,4167.1796875,33025,0.0,0.0,1.0,23.0
14.8046875,59,4132.9487304688,4095.8974609375,4138.9741210938,4094.1025390625,4119.8715820313,4122.6923828125,4156.5385742188,4132.6923828125,4148.58984375,4164.3588867188,4191.1538085938,4201.0258789063,4179.7436523438,4189.1025390625,33025,0.0,0.0,1.0,24.0
14.8125,59,4131.2822265625,4088.7180175781,4132.8203125,4079.7436523438,4122.8203125,4130.0,4163.3334960938,4146.41015625,4160.384765625,4170.5126953125,4201.2822265625,4199.1025390625,4187.9487304688,4193.9741210938,33025,0.0,0.0,1.0,24.0
14.8203125,59,4128.58984375,4080.5129394531,4117.1796875,4066.1538085938,4106.1538085938,4120.2563476563,4158.7177734375,4132.6923828125,4141.794921875,4155.8974609375,4190.6411132813,4175.8974609375,4173.7177734375,4180.6411132813,33025,0.0,0.0,1.0,24.0
14.828125,59,4124.7436523438,4071.9230957031,4103.4614257813,4056.41015625,4095.3845214844,4108.3334960938,4153.8461914063,4121.9228515625,4131.9228515625,4152.0512695313,4187.4360351563,4165.6411132813,4162.6923828125,4170.1284179688,33025,0.0,0.0,1.0,24.0
14.8359375,59,4122.1796875,4073.58984375,4097.1796875,4052.4357910156,4105.0,4111.1538085938,4153.9741210938,4132.3076171875,4147.0512695313,4166.41015625,4204.4873046875,4168.58984375,4177.8203125,4176.0258789063,33025,0.0,0.0,1.0,25.0
14.84375,59,4124.4873046875,4077.6923828125,4093.3332519531,4049.8718261719,4104.8715820313,4115.6411132813,4152.9487304688,4138.9741210938,4152.8203125,4173.205078125,4219.2309570313,4165.384765625,4187.8203125,4186.794921875,33025,0.0,0.0,1.0,25.0
14.8515625,59,4125.5126953125,4070.2563476563,4091.1538085938,4045.6411132813,4099.615234375,4109.4873046875,4143.7177734375,4131.5385742188,4146.41015625,4170.2563476563,4216.2822265625,4156.2822265625,4176.9228515625,4183.7177734375,33025,0.0,0.0,1.0,25.0
14.859375,59,4122.3076171875,4062.8205566406,4087.1794433594,4039.2307128906,4105.2563476563,4101.5385742188,4134.615234375,4121.5385742188,4140.1284179688,4165.6411132813,4207.1796875,4149.615234375,4170.0,4173.3334960938,33025,0.0,0.0,1.0,25.0
14.8671875,59,4115.1284179688,4056.794921875,4077.8205566406,4033.0769042969,4097.1796875,4099.2309570313,4137.6923828125,4120.8974609375,4132.4360351563,4157.9487304688,4202.0512695313,4147.9487304688,4168.4614257813,4171.1538085938,33025,0.0,0.0,1.0,26.0
14.875,59,4111.5385742188,4050.2563476563,4068.58984375,4032.8205566406,4082.8205566406,4094.6154785156,4137.6923828125,4121.6665039063,4128.8461914063,4152.1796875,4196.2822265625,4154.4873046875,4159.1025390625,4169.615234375,33025,0.0,0.0,1.0,26.0
14.8828125,59,4118.58984375,4054.2307128906,4068.4614257813,4039.4870605469,4098.4614257813,4096.2822265625,4134.7436523438,4119.7436523438,4135.0,4155.1284179688,4193.3334960938,4160.6411132813,4158.3334960938,4173.8461914063,33025,0.0,0.0,1.0,26.0
14.890625,59,4123.9741210938,4062.9487304688,4072.5642089844,4050.3845214844,4114.8715820313,4108.58984375,4148.205078125,4129.615234375,4143.58984375,4159.4873046875,4195.5126953125,4157.6923828125,4166.2822265625,4185.0,33025,0.0,0.0,1.0,26.0
14.8984375,59,4123.7177734375,4062.8205566406,4077.5642089844,4052.9487304688,4104.3588867188,4111.41015625,4158.205078125,4139.8715820313,4141.5385742188,4156.0258789063,4190.6411132813,4156.5385742188,4161.41015625,4184.4873046875,33025,0.0,0.0,1.0,27.0
14.90625,59,4122.0512695313,4060.5129394531,4084.3588867188,4048.4614257813,4105.384765625,4108.205078125,4153.7177734375,4133.8461914063,4137.5639648438,4154.615234375,4183.7177734375,4167.0512695313,4153.9741210938,4180.8974609375,33025,0.0,0.0,1.0,27.0
14.9140625,59,4121.2822265625,4064.4870605469,4081.6667480469,4047.1794433594,4116.9228515625,4105.7690429688,4148.7177734375,4126.0258789063,4138.205078125,4156.794921875,4186.5385742188,4173.205078125,4155.1284179688,4185.5126953125,33025,0.0,0.0,1.0,27.0
14.921875,59,4123.4614257813,4065.7692871094,4070.8974609375,4046.794921875,4105.5126953125,4101.1538085938,4143.4614257813,4123.205078125,4131.9228515625,4155.1284179688,4178.3334960938,4160.5126953125,4154.615234375,4186.2822265625,33025,0.0,0.0,1.0,27.0
14.9296875,59,4121.6665039063,4061.9230957031,4070.5129394531,4046.9230957031,4098.0771484375,4099.8715820313,4137.0512695313,4119.7436523438,4126.1538085938,4153.9741210938,4169.3588867188,4150.1284179688,4154.2309570313,4181.6665039063,33025,0.0,0.0,1.0,28.0
14.9375,59,4119.615234375,4059.6154785156,4076.6667480469,4052.0512695313,4115.7690429688,4107.8203125,4139.2309570313,4127.0512695313,4133.8461914063,4156.41015625,4184.1025390625,4151.794921875,4158.3334960938,4182.1796875,33025,0.0,0.0,1.0,28.0
14.9453125,59,4117.5639648438,4060.3845214844,4072.4357910156,4053.4614257813,4125.1284179688,4111.794921875,4142.9487304688,4135.7690429688,4145.0,4157.4360351563,4190.384765625,4138.3334960938,4158.7177734375,4186.2822265625,33025,0.0,0.0,1.0,28.0
14.953125,59,4117.3076171875,4067.6923828125,4066.794921875,4049.1025390625,4114.8715820313,4106.9228515625,4138.58984375,4128.58984375,4142.8203125,4155.1284179688,4174.615234375,4119.1025390625,4154.8715820313,4183.58984375,33025,0.0,0.0,1.0,28.0
14.9609375,59,4118.3334960938,4072.4357910156,4075.3845214844,4054.3588867188,4111.9228515625,4105.384765625,4136.5385742188,4120.8974609375,4136.5385742188,4155.5126953125,4168.58984375,4125.5126953125,4152.8203125,4173.8461914063,33025,0.0,0.0,1.0,29.0
14.96875,59,4114.3588867188,4066.0256347656,4074.6154785156,4058.0769042969,4116.9228515625,4107.0512695313,4136.6665039063,4123.9741210938,4139.4873046875,4156.41015625,4173.9741210938,4137.1796875,4155.2563476563,4173.205078125,33025,0.0,0.0,1.0,29.0
14.9765625,59,4115.5126953125,4062.9487304688,4063.7180175781,4053.4614257813,4108.0771484375,4108.58984375,4139.4873046875,4127.5639648438,4141.794921875,4151.1538085938,4172.1796875,4136.41015625,4154.2309570313,4184.1025390625,33025,0.0,0.0,1.0,29.0
14.984375,59,4117.8203125,4065.1281738281,4065.3845214844,4054.7436523438,4100.384765625,4105.2563476563,4140.384765625,4125.384765625,4130.2563476563,4141.0258789063,4164.4873046875,4138.58984375,4143.3334960938,4186.794921875,33025,0.0,0.0,1.0,29.0
14.9921875,59,4113.205078125,4062.1794433594,4067.3076171875,4059.2307128906,4103.9741210938,4094.7436523438,4130.5126953125,4119.1025390625,4115.384765625,4135.1284179688,4155.0,4140.0,4135.6411132813,4180.6411132813,33025,0.0,0.0,1.0,30.0
15.0,60,4116.41015625,4064.7436523438,4068.0769042969,4067.9487304688,4105.0,4094.1025390625,4127.4360351563,4120.1284179688,4124.8715820313,4144.615234375,4156.6665039063,4136.5385742188,4143.205078125,4183.4614257813,33025,0.0,0.0,1.0,30.0
15.0078125,60,4123.7177734375,4076.9230957031,4075.7692871094,4079.7436523438,4110.0,4105.1284179688,4135.8974609375,4130.0,4140.7690429688,4152.8203125,4169.8715820313,4138.4614257813,4154.8715820313,4189.2309570313,33025,0.0,0.0,1.0,30.0
15.015625,60,4121.794921875,4080.8974609375,4075.5129394531,4079.8718261719,4120.2563476563,4106.1538085938,4138.7177734375,4127.9487304688,4131.1538085938,4143.58984375,4167.0512695313,4134.7436523438,4151.1538085938,4187.4360351563,33025,0.0,0.0,1.0,30.0
15.0234375,60,4114.8715820313,4072.6923828125,4068.58984375,4073.9743652344,4118.3334960938,4100.0,4134.615234375,4119.3588867188,4118.8461914063,4134.8715820313,4154.1025390625,4120.5126953125,4138.7177734375,4181.6665039063,33025,0.0,0.0,1.0,31.0
15.03125,60,4113.205078125,4066.6667480469,4067.6923828125,4074.3588867188,4108.205078125,4099.3588867188,4133.3334960938,4122.4360351563,4124.615234375,4140.0,4153.0771484375,4120.2563476563,4134.2309570313,4171.794921875,33025,0.0,0.0,1.0,31.0
15.0390625,60,4113.9741210938,4062.5642089844,4067.4357910156,4073.3332519531,4105.1284179688,4095.0,4127.3076171875,4125.1284179688,4125.0,4140.5126953125,4155.384765625,4125.5126953125,4136.6665039063,4165.2563476563,33025,0.0,0.0,1.0,31.0
15.046875,60,4112.0512695313,4060.1281738281,4065.7692871094,4071.9230957031,4103.58984375,4091.41015625,4124.8715820313,4125.1284179688,4120.8974609375,4134.3588867188,4152.3076171875,4120.1284179688,4138.0771484375,4171.6665039063,33025,0.0,0.0,1.0,31.0
15.0546875,60,4119.4873046875,4062.5642089844,4075.8974609375,4075.7692871094,4108.3334960938,4103.3334960938,4143.9741210938,4134.7436523438,4134.8715820313,4142.6923828125,4154.4873046875,4126.794921875,4140.8974609375,4186.6665039063,33025,0.0,0.0,1.0,32.0
15.0625,60,4130.2563476563,4067.9487304688,4082.6923828125,4078.3332519531,4119.8715820313,4114.615234375,4157.9487304688,4141.6665039063,4143.0771484375,4151.1538085938,4159.7436523438,4139.1025390625,4147.8203125,4192.3076171875,33025,0.0,0.0,1.0,32.0
15.0703125,60,4125.5126953125,4073.7180175781,4076.2819824219,4084.2307128906,4120.2563476563,4110.6411132813,4147.0512695313,4132.9487304688,4131.0258789063,4144.615234375,4160.0,4125.6411132813,4155.2563476563,4190.1284179688,33025,0.0,0.0,1.0,32.0
15.078125,60,4120.0,4075.2563476563,4075.8974609375,4091.2819824219,4122.0512695313,4105.2563476563,4133.205078125,4123.4614257813,4123.4614257813,4136.9228515625,4156.41015625,4107.0512695313,4151.6665039063,4189.3588867188,33025,0.0,0.0,1.0,32.0
15.0859375,60,4118.9741210938,4076.5385742188,4080.0,4091.5385742188,4126.0258789063,4110.0,4137.0512695313,4123.3334960938,4123.3334960938,4136.41015625,4148.8461914063,4114.2309570313,4140.5126953125,4180.384765625,33025,0.0,0.0,1.0,33.0
15.09375,60,4115.1284179688,4077.3076171875,4078.3332519531,4091.6667480469,4112.1796875,4110.5126953125,4141.6665039063,4125.6411132813,4122.5639648438,4139.3588867188,4144.1025390625,4116.41015625,4139.3588867188,4171.1538085938,33025,0.0,0.0,1.0,33.0
15.1015625,60,4112.9487304688,4074.7436523438,4072.5642089844,4092.1794433594,4102.8203125,4100.8974609375,4131.2822265625,4120.0,4117.1796875,4135.2563476563,4142.4360351563,4100.384765625,4142.0512695313,4173.205078125,33025,0.0,0.0,1.0,33.0
15.109375,60,4115.2563476563,4077.4357910156,4069.7436523438,4089.8718261719,4118.0771484375,4099.2309570313,4124.3588867188,4110.7690429688,4108.205078125,4126.2822265625,4139.1025390625,4105.5126953125,4136.794921875,4172.8203125,33025,0.0,0.0,1.0,33.0
15.1171875,60,4118.58984375,4081.0256347656,4076.41015625,4091.0256347656,4129.7436523438,4107.4360351563,4126.1538085938,4113.3334960938,4110.5126953125,4128.0771484375,4140.0,4124.3588867188,4138.3334960938,4165.8974609375,33025,0.0,0.0,1.0,34.0
15.125,60,4117.1796875,4077.1794433594,4082.0512695313,4092.9487304688,4121.9228515625,4109.7436523438,4129.7436523438,4121.2822265625,4120.2563476563,4137.4360351563,4139.8715820313,4126.6665039063,4142.8203125,4163.3334960938,33025,0.0,0.0,1.0,34.0
15.1328125,60,4115.8974609375,4073.7180175781,4077.6923828125,4091.6667480469,4114.2309570313,4108.3334960938,4133.8461914063,4122.5639648438,4122.0512695313,4140.5126953125,4143.3334960938,4129.4873046875,4140.8974609375,4166.9228515625,33025,0.0,0.0,1.0,34.0
15.140625,60,4117.8203125,4075.2563476563,4074.6154785156,4090.5129394531,4116.0258789063,4111.2822265625,4140.2563476563,4129.4873046875,4130.2563476563,4141.794921875,4151.5385742188,4138.205078125,4146.6665039063,4168.7177734375,33025,0.0,0.0,1.0,34.0
15.1484375,60,4115.8974609375,4074.7436523438,4078.7180175781,4091.794921875,4123.9741210938,4113.205078125,4142.9487304688,4139.615234375,4141.2822265625,4142.3076171875,4149.2309570313,4138.3334960938,4152.6923828125,4168.58984375,33025,0.0,0.0,1.0,35.0
15.15625,60,4117.8203125,4079.2307128906,4085.5129394531,4095.0,4123.4614257813,4110.384765625,4135.5126953125,4132.1796875,4128.7177734375,4137.6923828125,4139.7436523438,4138.3334960938,4142.9487304688,4168.7177734375,33025,0.0,0.0,1.0,35.0
15.1640625,60,4121.0258789063,4089.2307128906,4087.9487304688,4097.4360351563,4112.9487304688,4107.9487304688,4126.1538085938,4117.5639648438,4112.0512695313,4135.1284179688,4139.2309570313,4136.9228515625,4135.7690429688,4171.0258789063,33025,0.0,0.0,1.0,35.0
15.171875,60,4121.41015625,4090.3845214844,4099.7436523438,4096.1538085938,4117.9487304688,4108.58984375,4138.0771484375,4129.4873046875,4126.2822265625,4141.2822265625,4153.4614257813,4127.4360351563,4156.9228515625,4183.8461914063,33025,0.0,0.0,1.0,35.0
15.1796875,60,4124.8715820313,4092.8205566406,4103.7177734375,4095.2563476563,4106.6665039063,4107.6923828125,4138.4614257813,4139.1025390625,4131.9228515625,4143.8461914063,4151.6665039063,4124.4873046875,4155.384765625,4188.3334960938,33025,0.0,0.0,1.0,36.0
15.1875,60,4124.8715820313,4090.0,4104.615234375,4092.8205566406,4101.5385742188,4106.5385742188,4138.3334960938,4135.8974609375,4127.0512695313,4141.6665039063,4140.7690429688,4119.615234375,4154.1025390625,4182.4360351563,33025,0.0,0.0,1.0,36.0
15.1953125,60,4121.6665039063,4085.0,4097.4360351563,4094.2307128906,4111.5385742188,4110.0,4138.58984375,4128.205078125,4122.3076171875,4137.5639648438,4134.8715820313,4122.5639648438,4152.4360351563,4176.9228515625,33025,0.0,0.0,1.0,36.0
15.203125,60,4122.3076171875,4091.2819824219,4100.5126953125,4100.8974609375,4120.5126953125,4114.3588867188,4139.1025390625,4129.4873046875,4127.3076171875,4138.9741210938,4148.7177734375,4136.2822265625,4157.1796875,4185.5126953125,33025,0.0,0.0,1.0,36.0
15.2109375,60,4123.0771484375,4105.384765625,4105.2563476563,4107.1796875,4119.3588867188,4118.0771484375,4138.8461914063,4121.794921875,4121.1538085938,4139.3588867188,4153.9741210938,4138.3334960938,4159.1025390625,4184.8715820313,33025,0.0,0.0,1.0,37.0
15.21875,60,4123.9741210938,4108.8461914063,4102.3076171875,4106.9228515625,4120.0,4121.1538085938,4137.9487304688,4108.0771484375,4108.9741210938,4133.9741210938,4140.6411132813,4130.6411132813,4153.8461914063,4171.1538085938,33025,0.0,0.0,1.0,37.0
15.2265625,60,4118.8461914063,4098.8461914063,4099.1025390625,4104.7436523438,4128.4614257813,4116.41015625,4136.0258789063,4113.3334960938,4114.4873046875,4134.615234375,4138.4614257813,4129.7436523438,4152.5639648438,4168.7177734375,33025,0.0,0.0,1.0,37.0
15.234375,60,4114.1025390625,4092.1794433594,4096.794921875,4107.1796875,4126.5385742188,4108.9741210938,4136.41015625,4126.794921875,4125.6411132813,4139.8715820313,4145.1284179688,4129.4873046875,4154.2309570313,4173.58984375,33025,0.0,0.0,1.0,37.0
15.2421875,60,4112.6923828125,4095.2563476563,4092.3076171875,4106.9228515625,4115.2563476563,4108.205078125,4139.7436523438,4124.615234375,4120.6411132813,4136.0258789063,4138.3334960938,4120.2563476563,4150.5126953125,4168.8461914063,33025,0.0,0.0,1.0,38.0
15.25,61,4116.0258789063,4097.4360351563,4097.9487304688,4104.3588867188,4114.4873046875,4112.3076171875,4138.9741210938,4117.6923828125,4116.0258789063,4132.4360351563,4133.9741210938,4118.8461914063,4148.0771484375,4167.4360351563,33025,0.0,0.0,1.0,38.0
15.2578125,61,4125.6411132813,4099.1025390625,4110.2563476563,4107.5639648438,4125.0,4117.3076171875,4136.0258789063,4125.6411132813,4130.5126953125,4143.3334960938,4146.1538085938,4135.2563476563,4153.205078125,4177.9487304688,33025,0.0,0.0,1.0,38.0
15.265625,61,4125.1284179688,4098.205078125,4107.6923828125,4110.0,4126.2822265625,4116.5385742188,4137.3076171875,4139.4873046875,4143.58984375,4151.2822265625,4150.7690429688,4146.794921875,4157.9487304688,4182.8203125,33025,0.0,0.0,1.0,38.0
15.2734375,61,4122.0512695313,4092.0512695313,4102.4360351563,4105.1284179688,4114.2309570313,4109.4873046875,4138.3334960938,4141.794921875,4143.0771484375,4144.3588867188,4143.58984375,4143.4614257813,4157.1796875,4181.794921875,33025,0.0,0.0,1.0,39.0
15.28125,61,4126.0258789063,4093.58984375,4103.3334960938,4101.1538085938,4106.2822265625,4106.0258789063,4134.2309570313,4129.4873046875,4135.8974609375,4138.0771484375,4137.6923828125,4143.9741210938,4152.9487304688,4179.2309570313,33025,0.0,0.0,1.0,39.0
15.2890625,61,4127.1796875,4103.7177734375,4104.8715820313,4105.2563476563,4103.3334960938,4106.6665039063,4130.8974609375,4121.1538085938,4127.3076171875,4138.8461914063,4137.1796875,4157.6923828125,4152.3076171875,4175.2563476563,33025,0.0,0.0,1.0,39.0
15.296875,61,4125.7690429688,4108.9741210938,4108.3334960938,4110.384765625,4112.0512695313,4108.0771484375,4128.8461914063,4127.0512695313,4124.8715820313,4140.8974609375,4139.1025390625,4164.615234375,4150.7690429688,4171.6665039063,33025,0.0,0.0,1.0,39.0
15.3046875,61,4122.3076171875,4104.4873046875,4107.9487304688,4110.1284179688,4124.7436523438,4109.3588867188,4123.58984375,4123.9741210938,4123.3334960938,4137.0512695313,4133.8461914063,4156.41015625,4141.41015625,4163.205078125,33025,0.0,0.0,1.0,40.0
15.3125,61,4121.2822265625,4099.1025390625,4099.7436523438,4107.0512695313,4117.5639648438,4105.384765625,4118.9741210938,4109.3588867188,4113.9741210938,4127.6923828125,4125.5126953125,4148.4614257813,4137.4360351563,4153.0771484375,33025,0.0,0.0,1.0,40.0
15.3203125,61,4120.5126953125,4100.6411132813,4098.4614257813,4106.2822265625,4108.4614257813,4102.0512695313,4121.1538085938,4104.8715820313,4104.8715820313,4121.794921875,4122.6923828125,4140.6411132813,4143.205078125,4152.6923828125,33025,0.0,0.0,1.0,40.0
15.328125,61,4115.1284179688,4106.2822265625,4103.7177734375,4108.0771484375,4110.0,4105.8974609375,4123.9741210938,4108.205078125,4105.7690429688,4124.1025390625,4126.0258789063,4130.0,4143.0771484375,4151.0258789063,33025,0.0,0.0,1.0,40.0
15.3359375,61,4115.7690429688,4107.0512695313,4102.3076171875,4108.7177734375,4113.9741210938,4105.1284179688,4120.6411132813,4106.794921875,4105.2563476563,4123.9741210938,4124.615234375,4123.0771484375,4136.6665039063,4142.0512695313,33025,0.0,0.0,1.0,41.0
15.34375,61,4122.3076171875,4101.9228515625,4100.1284179688,4107.5639648438,4116.0258789063,4107.1796875,4128.9741210938,4112.6923828125,4103.4614257813,4120.1284179688,4122.1796875,4119.4873046875,4138.4614257813,4144.8715820313,33025,0.0,0.0,1.0,41.0
15.3515625,61,4124.615234375,4100.6411132813,4101.5385742188,4106.0258789063,4118.58984375,4121.2822265625,4150.7690429688,4129.4873046875,4112.9487304688,4127.4360351563,4126.0258789063,4119.7436523438,4148.58984375,4159.2309570313,33025,0.0,0.0,1.0,41.0
15.359375,61,4123.58984375,4098.7177734375,4102.5639648438,4104.615234375,4118.9741210938,4128.0771484375,4155.8974609375,4139.7436523438,4128.3334960938,4137.5639648438,4127.4360351563,4126.9228515625,4154.8715820313,4168.0771484375,33025,0.0,0.0,1.0,41.0
15.3671875,61,4122.0512695313,4097.3076171875,4099.1025390625,4103.3334960938,4120.7690429688,4120.0,4143.3334960938,4141.6665039063,4137.8203125,4140.7690429688,4125.7690429688,4126.794921875,4148.9741210938,4168.0771484375,33025,0.0,0.0,1.0,42.0
15.375,61,4121.5385742188,4100.5126953125,4096.6665039063,4103.4614257813,4122.5639648438,4111.41015625,4136.1538085938,4138.3334960938,4135.5126953125,4138.58984375,4122.0512695313,4107.9487304688,4137.5639648438,4159.615234375,33025,0.0,0.0,1.0,42.0
15.3828125,61,4120.2563476563,4104.1025390625,4100.384765625,4106.41015625,4121.2822265625,4110.384765625,4131.0258789063,4125.5126953125,4124.2309570313,4132.3076171875,4120.2563476563,4095.5129394531,4135.2563476563,4148.4614257813,33025,0.0,0.0,1.0,42.0
15.390625,61,4121.1538085938,4109.7436523438,4109.1025390625,4112.4360351563,4122.6923828125,4111.41015625,4123.8461914063,4114.8715820313,4116.41015625,4128.58984375,4125.384765625,4105.8974609375,4140.6411132813,4148.9741210938,33025,0.0,0.0,1.0,42.0
15.3984375,61,4124.3588867188,4108.3334960938,4111.0258789063,4114.8715820313,4124.4873046875,4114.1025390625,4129.7436523438,4117.3076171875,4112.4360351563,4125.7690429688,4126.6665039063,4113.205078125,4137.9487304688,4157.0512695313,33025,0.0,0.0,1.0,43.0
15.40625,61,4121.1538085938,4099.3588867188,4101.9228515625,4108.3334960938,4120.5126953125,4117.6923828125,4138.7177734375,4120.8974609375,4107.5639648438,4122.6923828125,4123.4614257813,4108.7177734375,4132.6923828125,4155.0,33025,0.0,0.0,1.0,43.0
15.4140625,61,4121.794921875,4099.615234375,4101.794921875,4108.9741210938,4114.7436523438,4120.8974609375,4138.58984375,4119.7436523438,4111.5385742188,4125.0,4133.7177734375,4110.6411132813,4142.5639648438,4151.2822265625,33025,0.0,0.0,1.0,43.0
15.421875,61,4127.0512695313,4107.9487304688,4113.7177734375,4122.4360351563,4114.7436523438,4120.2563476563,4138.8461914063,4123.7177734375,4126.2822265625,4136.5385742188,4155.0,4119.615234375,4157.9487304688,4161.41015625,33025,0.0,0.0,1.0,43.0
15.4296875,61,4127.9487304688,4110.1284179688,4120.7690429688,4129.2309570313,4122.5639648438,4115.384765625,4135.7690429688,4127.5639648438,4130.1284179688,4144.615234375,4157.6923828125,4125.8974609375,4161.9228515625,4171.0258789063,33025,0.0,0.0,1.0,44.0
15.4375,61,4130.0,4108.205078125,4116.1538085938,4122.5639648438,4124.2309570313,4113.0771484375,4127.1796875,4119.1025390625,4115.6411132813,4135.8974609375,4136.6665039063,4117.8203125,4151.1538085938,4160.6411132813,33025,0.0,0.0,1.0,44.0
15.4453125,61,4125.6411132813,4108.7177734375,4104.8715820313,4116.794921875,4119.2309570313,4112.1796875,4124.8715820313,4105.5126953125,4104.615234375,4123.205078125,4118.8461914063,4095.8974609375,4132.9487304688,4139.4873046875,33025,0.0,0.0,1.0,44.0
15.453125,61,4117.0512695313,4107.4360351563,4100.8974609375,4117.3076171875,4119.615234375,4110.0,4125.8974609375,4102.5639648438,4110.8974609375,4123.4614257813,4123.4614257813,4090.8974609375,4131.0258789063,4131.5385742188,33025,0.0,0.0,1.0,44.0
15.4609375,61,4116.794921875,4106.41015625,4105.5126953125,4120.384765625,4120.7690429688,4111.6665039063,4125.7690429688,4112.9487304688,4123.205078125,4136.41015625,4138.9741210938,4111.794921875,4150.2563476563,4144.1025390625,33025,0.0,0.0,1.0,45.0
15.46875,61,4125.2563476563,4107.4360351563,4103.8461914063,4122.3076171875,4116.6665039063,4119.3588867188,4133.58984375,4124.2309570313,4127.8203125,4142.6923828125,4144.3588867188,4128.3334960938,4159.2309570313,4160.6411132813,33025,0.0,0.0,1.0,45.0
15.4765625,61,4130.1284179688,4106.794921875,4100.1284179688,4117.0512695313,4110.7690429688,4124.7436523438,4142.3076171875,4124.1025390625,4124.1025390625,4133.7177734375,4133.9741210938,4123.8461914063,4144.2309570313,4155.6411132813,33025,0.0,0.0,1.0,45.0
15.484375,61,4123.8461914063,4107.4360351563,4098.3334960938,4109.7436523438,4108.0771484375,4122.5639648438,4140.6411132813,4120.6411132813,4121.1538085938,4121.0258789063,4113.205078125,4117.1796875,4127.4360351563,4139.7436523438,33025,0.0,0.0,1.0,45.0
15.4921875,61,4122.5639648438,4107.3076171875,4095.3845214844,4114.7436523438,4120.2563476563,4123.205078125,4138.4614257813,4122.8203125,4120.8974609375,4114.8715820313,4098.0771484375,4109.4873046875,4117.9487304688,4137.4360351563,33025,0.0,0.0,1.0,46.0
15.5,62,4127.6923828125,4110.1284179688,4100.2563476563,4125.1284179688,4133.8461914063,4126.5385742188,4139.3588867188,4117.1796875,4118.205078125,4111.2822265625,4098.58984375,4096.6665039063,4111.0258789063,4138.205078125,33025,0.0,0.0,1.0,46.0
15.5078125,62,4129.3588867188,4119.1025390625,4108.3334960938,4128.0771484375,4133.0771484375,4126.794921875,4137.5639648438,4106.0258789063,4109.3588867188,4106.9228515625,4104.2309570313,4095.1281738281,4110.6411132813,4134.7436523438,33025,0.0,0.0,1.0,46.0
15.515625,62,4128.0771484375,4117.8203125,4109.3588867188,4126.0258789063,4122.5639648438,4121.41015625,4136.0258789063,4109.1025390625,4099.8715820313,4108.8461914063,4109.2309570313,4102.8203125,4117.3076171875,4136.2822265625,33025,0.0,0.0,1.0,46.0
15.5234375,62,4124.8715820313,4107.4360351563,4100.384765625,4118.58984375,4113.7177734375,4120.0,4136.9228515625,4124.8715820313,4108.7177734375,4122.3076171875,4122.8203125,4109.3588867188,4129.3588867188,4144.1025390625,33025,0.0,0.0,1.0,47.0
15.53125,62,4125.8974609375,4104.2309570313,4095.2563476563,4111.5385742188,4112.8203125,4124.8715820313,4140.1284179688,4139.8715820313,4133.7177734375,4137.1796875,4145.8974609375,4110.2563476563,4141.0258789063,4155.0,33025,0.0,0.0,1.0,47.0
15.5390625,62,4128.205078125,4106.0258789063,4100.8974609375,4115.384765625,4117.6923828125,4122.3076171875,4138.9741210938,4143.205078125,4146.9228515625,4142.9487304688,4155.6411132813,4106.5385742188,4144.8715820313,4162.6923828125,33025,0.0,0.0,1.0,47.0
15.546875,62,4127.4360351563,4115.0,4104.7436523438,4124.615234375,4125.1284179688,4116.9228515625,4128.4614257813,4127.5639648438,4135.384765625,4142.0512695313,4147.0512695313,4115.0,4143.8461914063,4161.794921875,33025,0.0,0.0,1.0,47.0
15.5546875,62,4129.2309570313,4123.205078125,4100.8974609375,4126.0258789063,4123.7177734375,4117.5639648438,4120.0,4107.5639648438,4122.3076171875,4138.8461914063,4137.4360351563,4129.2309570313,4140.5126953125,4155.5126953125,33025,0.0,0.0,1.0,48.0
15.5625,62,4124.3588867188,4113.7177734375,4093.9743652344,4121.1538085938,4118.58984375,4121.6665039063,4124.1025390625,4111.41015625,4125.384765625,4133.9741210938,4127.9487304688,4120.7690429688,4131.1538085938,4147.6923828125,33025,0.0,0.0,1.0,48.0
15.5703125,62,4114.1025390625,4103.58984375,4094.3588867188,4119.4873046875,4126.6665039063,4126.9228515625,4127.6923828125,4115.0,4119.615234375,4122.1796875,4108.9741210938,4099.615234375,4116.794921875,4133.7177734375,33025,0.0,0.0,1.0,48.0
15.578125,62,4110.0,4108.7177734375,4098.8461914063,4121.2822265625,4124.2309570313,4125.1284179688,4119.4873046875,4093.8461914063,4095.5129394531,4106.794921875,4089.1025390625,4097.8203125,4103.3334960938,4119.1025390625,33025,0.0,0.0,1.0,48.0
15.5859375,62,4111.9228515625,4113.58984375,4102.0512695313,4124.1025390625,4105.384765625,4116.2822265625,4114.3588867188,4086.9230957031,4084.8718261719,4101.794921875,4081.794921875,4109.8715820313,4098.3334960938,4118.4614257813,33025,0.0,0.0,1.0,49.0
15.59375,62,4121.41015625,4115.384765625,4110.5126953125,4129.3588867188,4107.5639648438,4116.5385742188,4124.4873046875,4104.8715820313,4094.4870605469,4103.0771484375,4082.6923828125,4128.0771484375,4100.6411132813,4130.384765625,33025,0.0,0.0,1.0,49.0
15.6015625,62,4130.0,4123.3334960938,4121.9228515625,4137.4360351563,4130.1284179688,4126.2822265625,4137.9487304688,4116.0258789063,4103.205078125,4107.4360351563,4091.9230957031,4151.2822265625,4106.794921875,4139.4873046875,33025,0.0,0.0,1.0,49.0
15.609375,62,4132.3076171875,4127.5639648438,4127.8203125,4142.9487304688,4131.1538085938,4125.384765625,4138.0771484375,4120.1284179688,4113.4614257813,4117.5639648438,4106.9228515625,4159.615234375,4116.794921875,4142.9487304688,33025,0.0,0.0,1.0,49.0
15.6171875,62,4132.1796875,4127.5639648438,4126.5385742188,4141.1538085938,4117.0512695313,4119.1025390625,4126.41015625,4126.794921875,4125.6411132813,4126.41015625,4111.0258789063,4157.4360351563,4121.794921875,4141.794921875,33025,0.0,0.0,1.0,50.0
15.625,62,4128.9741210938,4128.205078125,4121.41015625,4136.0258789063,4119.7436523438,4120.2563476563,4121.0258789063,4120.7690429688,4121.1538085938,4123.58984375,4102.3076171875,4155.5126953125,4116.5385742188,4140.1284179688,33025,0.0,0.0,1.0,50.0
15.6328125,62,4127.4360351563,4125.6411132813,4113.9741210938,4134.615234375,4126.1538085938,4122.9487304688,4128.7177734375,4106.6665039063,4108.8461914063,4119.2309570313,4094.1025390625,4142.5639648438,4111.1538085938,4139.2309570313,33025,0.0,0.0,1.0,50.0
15.640625,62,4124.7436523438,4123.58984375,4107.9487304688,4136.0258789063,4113.4614257813,4121.41015625,4133.0771484375,4105.384765625,4108.9741210938,4119.615234375,4095.2563476563,4132.8203125,4112.1796875,4139.4873046875,33025,0.0,0.0,1.0,50.0
15.6484375,62,4120.2563476563,4124.7436523438,4104.2309570313,4131.41015625,4104.8715820313,4120.2563476563,4133.205078125,4112.5639648438,4120.1284179688,4118.7177734375,4096.2822265625,4137.8203125,4110.5126953125,4138.0771484375,33025,0.0,0.0,1.0,51.0
15.65625,62,4119.8715820313,4123.205078125,4103.58984375,4128.7177734375,4122.9487304688,4123.8461914063,4132.6923828125,4111.1538085938,4118.4614257813,4112.9487304688,4093.9743652344,4132.6923828125,4107.1796875,4132.5639648438,33025,0.0,0.0,1.0,51.0
15.6640625,62,4123.8461914063,4124.4873046875,4111.794921875,4136.41015625,4138.4614257813,4125.2563476563,4125.6411132813,4107.0512695313,4106.6665039063,4110.2563476563,4102.0512695313,4132.6923828125,4112.0512695313,4132.5639648438,33025,0.0,0.0,1.0,51.0
15.671875,62,4132.5639648438,4133.8461914063,4125.8974609375,4143.205078125,4129.1025390625,4122.4360351563,4124.4873046875,4120.5126953125,4115.384765625,4123.58984375,4116.5385742188,4158.0771484375,4122.6923828125,4139.4873046875,33025,0.0,0.0,1.0,51.0
15.6796875,62,4135.8974609375,4136.6665039063,4128.3334960938,4141.9228515625,4125.8974609375,4125.6411132813,4140.1284179688,4141.5385742188,4139.1025390625,4136.0258789063,4117.0512695313,4157.1796875,4130.7690429688,4142.1796875,33025,0.0,0.0,1.0,52.0
15.6875,62,4127.3076171875,4122.1796875,4115.1284179688,4133.9741210938,4131.794921875,4129.4873046875,4150.0,4145.7690429688,4143.58984375,4128.0771484375,4106.0258789063,4116.41015625,4125.5126953125,4135.2563476563,33025,0.0,0.0,1.0,52.0
15.6953125,62,4122.3076171875,4109.1025390625,4108.4614257813,4125.1284179688,4112.9487304688,4121.2822265625,4136.9228515625,4132.4360351563,4128.3334960938,4117.5639648438,4101.9228515625,4105.2563476563,4112.0512695313,4130.0,33025,0.0,0.0,1.0,52.0
15.703125,62,4125.1284179688,4108.9741210938,4111.2822265625,4122.4360351563,4102.8203125,4115.6411132813,4123.8461914063,4115.8974609375,4120.8974609375,4120.7690429688,4105.6411132813,4121.9228515625,4109.4873046875,4135.384765625,33025,0.0,0.0,1.0,52.0
15.7109375,62,4129.2309570313,4110.384765625,4110.1284179688,4123.9741210938,4116.9228515625,4121.5385742188,4123.58984375,4109.4873046875,4123.4614257813,4124.3588867188,4107.1796875,4115.384765625,4118.58984375,4146.1538085938,33025,0.0,0.0,1.0,53.0
15.71875,62,4128.8461914063,4111.0258789063,4112.3076171875,4123.4614257813,4115.7690429688,4124.2309570313,4125.384765625,4114.8715820313,4122.5639648438,4121.9228515625,4108.4614257813,4111.794921875,4122.9487304688,4151.5385742188,33025,0.0,0.0,1.0,53.0
15.7265625,62,4129.7436523438,4112.8203125,4119.4873046875,4124.8715820313,4110.7690429688,4121.1538085938,4123.4614257813,4120.5126953125,4121.5385742188,4123.7177734375,4115.5126953125,4129.2309570313,4121.2822265625,4150.7690429688,33025,0.0,0.0,1.0,53.0
15.734375,62,4134.2309570313,4110.0,4122.8203125,4126.5385742188,4118.7177734375,4123.205078125,4123.7177734375,4123.3334960938,4125.384765625,4127.4360351563,4124.3588867188,4133.58984375,4126.41015625,4154.1025390625,33025,0.0,0.0,1.0,53.0
15.7421875,62,4131.2822265625,4107.4360351563,4116.794921875,4123.8461914063,4117.0512695313,4121.1538085938,4121.6665039063,4122.9487304688,4128.4614257813,4127.5639648438,4125.7690429688,4122.6923828125,4129.7436523438,4159.615234375,33025,0.0,0.0,1.0,54.0
15.75,63,4126.9228515625,4108.4614257813,4108.8461914063,4123.0771484375,4106.0258789063,4110.5126953125,4115.1284179688,4112.8203125,4122.5639648438,4126.41015625,4120.7690429688,4119.2309570313,4119.2309570313,4155.1284179688,33025,0.0,0.0,1.0,54.0
15.7578125,63,4123.8461914063,4105.8974609375,4103.3334960938,4123.205078125,4108.0771484375,4112.1796875,4116.41015625,4105.0,4113.4614257813,4120.384765625,4107.1796875,4113.7177734375,4105.7690429688,4142.1796875,33025,0.0,0.0,1.0,54.0
15.765625,63,4119.8715820313,4102.3076171875,4099.7436523438,4121.0258789063,4114.7436523438,4120.2563476563,4117.4360351563,4108.58984375,4108.205078125,4108.205078125,4091.9230957031,4105.5126953125,4103.7177734375,4136.0258789063,33025,0.0,0.0,1.0,54.0
15.7734375,63,4125.6411132813,4106.9228515625,4104.4873046875,4122.1796875,4118.7177734375,4113.58984375,4108.205078125,4106.41015625,4100.8974609375,4103.3334960938,4091.0256347656,4113.0771484375,4107.1796875,4142.8203125,33025,0.0,0.0,1.0,55.0
15.78125,63,4130.384765625,4110.6411132813,4109.8715820313,4125.384765625,4121.5385742188,4105.7690429688,4105.1284179688,4095.8974609375,4093.3332519531,4107.5639648438,4094.1025390625,4120.5126953125,4104.615234375,4151.2822265625,33025,0.0,0.0,1.0,55.0
15.7890625,63,4127.6923828125,4108.205078125,4106.2822265625,4124.2309570313,4111.9228515625,4108.8461914063,4110.384765625,4096.2822265625,4093.9743652344,4106.2822265625,4092.1794433594,4111.6665039063,4101.41015625,4152.4360351563,33025,0.0,0.0,1.0,55.0
15.796875,63,4126.9228515625,4106.5385742188,4099.2309570313,4121.2822265625,4105.0,4112.6923828125,4109.7436523438,4102.9487304688,4102.1796875,4105.1284179688,4097.5639648438,4103.8461914063,4103.9741210938,4150.384765625,33025,0.0,0.0,1.0,55.0
15.8046875,63,4126.0258789063,4106.794921875,4099.7436523438,4120.7690429688,4110.0,4114.1025390625,4108.9741210938,4111.41015625,4113.8461914063,4115.2563476563,4106.9228515625,4113.205078125,4112.6923828125,4152.1796875,33025,0.0,0.0,1.0,56.0
15.8125,63,4124.615234375,4106.794921875,4108.58984375,4121.794921875,4110.1284179688,4113.58984375,4111.41015625,4121.6665039063,4123.8461914063,4124.8715820313,4113.8461914063,4126.1538085938,4121.5385742188,4163.3334960938,33025,0.0,0.0,1.0,56.0
15.8203125,63,4122.5639648438,4105.5126953125,4109.4873046875,4120.5126953125,4102.0512695313,4108.205078125,4108.58984375,4118.7177734375,4125.2563476563,4125.7690429688,4122.3076171875,4124.615234375,4125.2563476563,4170.2563476563,33025,0.0,0.0,1.0,56.0
15.828125,63,4122.0512695313,4103.9741210938,4102.1796875,4119.1025390625,4100.2563476563,4106.2822265625,4107.1796875,4111.9228515625,4121.2822265625,4123.8461914063,4124.4873046875,4118.7177734375,4123.9741210938,4161.41015625,33025,0.0,0.0,1.0,56.0
15.8359375,63,4122.9487304688,4104.8715820313,4101.5385742188,4120.2563476563,4107.0512695313,4107.1796875,4105.8974609375,4115.5126953125,4120.5126953125,4123.4614257813,4119.2309570313,4118.205078125,4122.3076171875,4153.0771484375,33025,0.0,0.0,1.0,57.0
15.84375,63,4119.3588867188,4105.8974609375,4102.8203125,4121.41015625,4110.1284179688,4106.41015625,4099.7436523438,4114.2309570313,4116.6665039063,4124.4873046875,4121.2822265625,4119.8715820313,4123.4614257813,4156.6665039063,33025,0.0,0.0,1.0,57.0
15.8515625,63,4117.6923828125,4106.0258789063,4101.794921875,4120.8974609375,4109.3588867188,4107.0512695313,4099.615234375,4103.8461914063,4108.58984375,4125.2563476563,4126.1538085938,4119.3588867188,4124.7436523438,4161.9228515625,33025,0.0,0.0,1.0,57.0
15.859375,63,4121.41015625,4107.6923828125,4100.5126953125,4119.615234375,4108.7177734375,4107.8203125,4105.5126953125,4105.0,4108.7177734375,4124.1025390625,4122.4360351563,4120.5126953125,4122.4360351563,4164.8715820313,33025,0.0,0.0,1.0,57.0
15.8671875,63,4125.2563476563,4108.9741210938,4100.6411132813,4118.8461914063,4107.9487304688,4108.58984375,4101.1538085938,4109.2309570313,4110.1284179688,4122.8203125,4121.0258789063,4128.4614257813,4120.1284179688,4167.4360351563,33025,0.0,0.0,1.0,58.0
15.875,63,4122.1796875,4107.0512695313,4103.205078125,4122.3076171875,4108.205078125,4109.1025390625,4091.6667480469,4097.9487304688,4101.2822265625,4122.4360351563,4130.5126953125,4138.205078125,4126.0258789063,4166.2822265625,33025,0.0,0.0,1.0,58.0
15.8828125,63,4115.2563476563,4106.5385742188,4103.0771484375,4121.5385742188,4107.9487304688,4107.4360351563,4092.4357910156,4092.8205566406,4097.9487304688,4122.9487304688,4140.5126953125,4141.1538085938,4136.5385742188,4165.0,33025,0.0,0.0,1.0,58.0
15.890625,63,4118.7177734375,4107.1796875,4104.2309570313,4113.205078125,4106.2822265625,4106.5385742188,4094.6154785156,4102.8203125,4106.9228515625,4128.7177734375,4145.2563476563,4143.7177734375,4139.2309570313,4168.0771484375,33025,0.0,0.0,1.0,58.0
15.8984375,63,4123.7177734375,4106.9228515625,4113.7177734375,4112.5639648438,4108.58984375,4106.2822265625,4091.794921875,4109.1025390625,4110.0,4135.7690429688,4151.5385742188,4151.794921875,4138.4614257813,4175.0,33025,0.0,0.0,1.0,59.0
15.90625,63,4124.4873046875,4109.2309570313,4124.1025390625,4120.2563476563,4109.1025390625,4108.205078125,4094.7436523438,4106.794921875,4108.8461914063,4137.1796875,4153.3334960938,4154.615234375,4141.1538085938,4183.8461914063,33025,0.0,0.0,1.0,59.0
15.9140625,63,4133.58984375,4113.9741210938,4125.6411132813,4123.7177734375,4107.0512695313,4111.5385742188,4103.7177734375,4111.1538085938,4116.2822265625,4137.1796875,4145.384765625,4151.9228515625,4141.794921875,4186.6665039063,33025,0.0,0.0,1.0,59.0
15.921875,63,4138.8461914063,4115.1284179688,4123.58984375,4119.1025390625,4108.9741210938,4111.794921875,4110.5126953125,4121.1538085938,4120.8974609375,4135.5126953125,4138.205078125,4154.8715820313,4139.2309570313,4183.9741210938,33025,0.0,0.0,1.0,59.0
15.9296875,63,4132.8203125,4110.6411132813,4119.8715820313,4111.41015625,4110.384765625,4107.9487304688,4105.0,4119.1025390625,4113.205078125,4127.8203125,4133.4614257813,4156.5385742188,4136.41015625,4179.2309570313,33025,0.0,0.0,1.0,60.0
15.9375,63,4125.1284179688,4106.2822265625,4111.5385742188,4106.2822265625,4105.1284179688,4106.0258789063,4094.8718261719,4108.4614257813,4106.794921875,4121.2822265625,4123.3334960938,4146.6665039063,4129.2309570313,4167.9487304688,33025,0.0,0.0,1.0,60.0
15.9453125,63,4122.9487304688,4106.41015625,4109.2309570313,4107.8203125,4101.794921875,4108.3334960938,4094.7436523438,4104.1025390625,4108.0771484375,4122.4360351563,4122.0512695313,4137.4360351563,4123.3334960938,4160.0,33025,0.0,0.0,1.0,60.0
15.953125,63,4124.3588867188,4109.2309570313,4114.4873046875,4110.6411132813,4106.0258789063,4106.1538085938,4097.3076171875,4106.794921875,4110.384765625,4126.2822265625,4131.794921875,4140.7690429688,4126.9228515625,4160.5126953125,33025,0.0,0.0,1.0,60.0
15.9609375,63,4117.5639648438,4104.4873046875,4109.7436523438,4107.3076171875,4107.8203125,4099.615234375,4091.5385742188,4105.384765625,4109.615234375,4126.5385742188,4131.5385742188,4146.0258789063,4127.8203125,4156.794921875,33025,0.0,0.0,1.0,61.0
15.96875,63,4112.9487304688,4096.0258789063,4097.6923828125,4103.7177734375,4100.1284179688,4095.8974609375,4086.794921875,4097.8203125,4105.1284179688,4122.9487304688,4121.1538085938,4139.7436523438,4121.794921875,4148.9741210938,33025,0.0,0.0,1.0,61.0
15.9765625,63,4117.9487304688,4097.6923828125,4106.0258789063,4105.8974609375,4097.6923828125,4098.4614257813,4090.5129394531,4095.0,4103.3334960938,4122.4360351563,4120.8974609375,4136.0258789063,4121.9228515625,4149.8715820313,33025,0.0,0.0,1.0,61.0
15.984375,63,4121.41015625,4105.7690429688,4115.384765625,4110.0,4100.8974609375,4102.6923828125,4093.3332519531,4101.1538085938,4105.6411132813,4124.4873046875,4125.1284179688,4140.5126953125,4122.8203125,4155.0,33025,0.0,0.0,1.0,61.0
15.9921875,63,4123.0771484375,4105.384765625,4104.1025390625,4106.5385742188,4095.8974609375,4103.7177734375,4090.2563476563,4104.8715820313,4104.4873046875,4121.41015625,4122.4360351563,4138.7177734375,4118.9741210938,4153.3334960938,33025,0.0,0.0,1.0,62.0
16.0,64,4123.58984375,4101.5385742188,4102.1796875,4104.7436523438,4095.0,4105.0,4091.794921875,4106.5385742188,4103.7177734375,4119.8715820313,4127.1796875,4140.8974609375,4125.6411132813,4155.7690429688,33025,0.0,0.0,1.0,62.0
16.0078125,64,4125.5126953125,4111.1538085938,4121.0258789063,4116.9228515625,4106.9228515625,4106.41015625,4101.794921875,4117.8203125,4111.5385742188,4129.1025390625,4140.0,4153.9741210938,4137.9487304688,4162.9487304688,33025,0.0,0.0,1.0,62.0
16.015625,64,4124.615234375,4118.0771484375,4127.5639648438,4125.1284179688,4113.205078125,4110.0,4105.8974609375,4125.1284179688,4121.6665039063,4138.4614257813,4143.9741210938,4157.4360351563,4136.1538085938,4160.8974609375,33025,0.0,0.0,1.0,62.0
16.0234375,64,4121.794921875,4110.2563476563,4113.0771484375,4117.0512695313,4107.3076171875,4109.7436523438,4097.9487304688,4115.8974609375,4124.1025390625,4139.1025390625,4141.794921875,4156.1538085938,4132.8203125,4153.8461914063,33025,0.0,0.0,1.0,63.0
16.03125,64,4121.0258789063,4104.3588867188,4108.4614257813,4108.58984375,4103.3334960938,4102.1796875,4091.9230957031,4105.7690429688,4117.8203125,4136.5385742188,4140.5126953125,4154.1025390625,4137.0512695313,4150.8974609375,33025,0.0,0.0,1.0,63.0
16.0390625,64,4117.6923828125,4106.41015625,4113.9741210938,4109.615234375,4106.41015625,4099.3588867188,4092.0512695313,4106.9228515625,4109.1025390625,4134.7436523438,4138.0771484375,4142.1796875,4131.6665039063,4150.7690429688,33025,0.0,0.0,1.0,63.0
16.046875,64,4121.0258789063,4111.1538085938,4115.7690429688,4114.1025390625,4104.8715820313,4103.205078125,4090.7692871094,4108.9741210938,4110.6411132813,4135.1284179688,4136.5385742188,4141.0258789063,4126.5385742188,4151.41015625,33025,0.0,0.0,1.0,63.0
16.0546875,64,4129.3588867188,4120.6411132813,4118.3334960938,4121.5385742188,4103.7177734375,4106.9228515625,4090.5129394531,4109.3588867188,4120.6411132813,4138.8461914063,4142.4360351563,4152.8203125,4136.0258789063,4155.2563476563,33025,0.0,0.0,1.0,64.0
16.0625,64,4127.4360351563,4124.615234375,4120.6411132813,4127.3076171875,4112.8203125,4106.5385742188,4090.5129394531,4109.8715820313,4118.7177734375,4139.3588867188,4145.2563476563,4147.9487304688,4141.2822265625,4156.1538085938,33025,0.0,0.0,1.0,64.0
16.0703125,64,4119.7436523438,4109.7436523438,4118.0771484375,4119.1025390625,4112.9487304688,4103.3334960938,4087.5642089844,4106.41015625,4104.1025390625,4127.1796875,4133.3334960938,4134.1025390625,4135.7690429688,4151.1538085938,33025,0.0,0.0,1.0,64.0
16.078125,64,4113.4614257813,4100.384765625,4106.794921875,4105.384765625,4096.1538085938,4100.2563476563,4088.7180175781,4106.41015625,4102.6923828125,4118.4614257813,4126.41015625,4136.6665039063,4134.1025390625,4148.4614257813,33025,0.0,0.0,1.0,64.0
16.0859375,64,4115.7690429688,4106.41015625,4106.41015625,4109.3588867188,4099.1025390625,4103.0771484375,4094.1025390625,4112.3076171875,4111.794921875,4128.4614257813,4136.794921875,4149.1025390625,4139.7436523438,4153.3334960938,33025,0.0,0.0,1.0,65.0
16.09375,64,4120.384765625,4110.1284179688,4119.615234375,4119.8715820313,4116.2822265625,4108.7177734375,4097.3076171875,4111.9228515625,4112.1796875,4135.6411132813,4142.5639648438,4155.5126953125,4144.1025390625,4156.5385742188,33025,0.0,0.0,1.0,65.0
16.1015625,64,4116.41015625,4107.6923828125,4117.1796875,4114.1025390625,4102.3076171875,4106.41015625,4100.7690429688,4106.794921875,4107.5639648438,4129.615234375,4137.0512695313,4155.1284179688,4143.8461914063,4152.9487304688,33025,0.0,0.0,1.0,65.0
16.109375,64,4116.6665039063,4106.41015625,4109.2309570313,4108.0771484375,4089.2307128906,4103.7177734375,4105.7690429688,4112.3076171875,4107.0512695313,4124.615234375,4135.6411132813,4157.8203125,4139.8715820313,4151.5385742188,33025,0.0,0.0,1.0,65.0
16.1171875,64,4124.2309570313,4112.9487304688,4115.1284179688,4115.0,4113.7177734375,4111.6665039063,4107.6923828125,4120.384765625,4112.3076171875,4127.0512695313,4137.3076171875,4167.8203125,4137.5639648438,4154.2309570313,33025,0.0,0.0,1.0,66.0
16.125,64,4127.4360351563,4121.6665039063,4121.2822265625,4117.5639648438,4129.615234375,4122.4360351563,4111.41015625,4122.4360351563,4121.1538085938,4133.0771484375,4135.5126953125,4172.6923828125,4141.0258789063,4154.8715820313,33025,0.0,0.0,1.0,66.0
16.1328125,64,4124.4873046875,4121.9228515625,4117.5639648438,4111.9228515625,4118.58984375,4125.0,4120.7690429688,4129.7436523438,4127.1796875,4140.7690429688,4137.9487304688,4167.5639648438,4145.0,4156.1538085938,33025,0.0,0.0,1.0,66.0
16.140625,64,4123.8461914063,4114.2309570313,4113.58984375,4108.0771484375,4117.9487304688,4122.4360351563,4124.2309570313,4134.615234375,4125.7690429688,4140.1284179688,4139.615234375,4160.5126953125,4142.8203125,4157.9487304688,33025,0.0,0.0,1.0,66.0
16.1484375,64,4131.6665039063,4111.1538085938,4114.615234375,4108.9741210938,4125.1284179688,4122.5639648438,4119.3588867188,4126.0258789063,4122.3076171875,4130.5126953125,4134.615234375,4154.2309570313,4136.9228515625,4152.8203125,33025,0.0,0.0,1.0,67.0
16.15625,64,4134.1025390625,4110.7690429688,4106.1538085938,4107.3076171875,4115.2563476563,4120.5126953125,4115.7690429688,4120.384765625,4121.6665039063,4131.1538085938,4132.1796875,4148.7177734375,4137.1796875,4146.9228515625,33025,0.0,0.0,1.0,67.0
16.1640625,64,4128.205078125,4106.5385742188,4101.0258789063,4103.8461914063,4101.794921875,4112.9487304688,4110.6411132813,4123.0771484375,4121.5385742188,4139.2309570313,4138.205078125,4153.205078125,4142.5639648438,4149.615234375,33025,0.0,0.0,1.0,67.0
16.171875,64,4126.5385742188,4111.0258789063,4116.9228515625,4112.1796875,4109.2309570313,4107.1796875,4103.58984375,4121.5385742188,4119.8715820313,4136.1538085938,4141.1538085938,4165.384765625,4142.1796875,4155.1284179688,33025,0.0,0.0,1.0,67.0
16.1796875,64,4127.3076171875,4121.0258789063,4126.1538085938,4126.6665039063,4122.4360351563,4106.6665039063,4102.9487304688,4114.3588867188,4111.5385742188,4125.5126953125,4132.6923828125,4162.9487304688,4136.41015625,4150.1284179688,33025,0.0,0.0,1.0,68.0
16.1875,64,4127.1796875,4122.5639648438,4116.5385742188,4126.41015625,4116.41015625,4105.384765625,4105.2563476563,4108.0771484375,4103.9741210938,4121.2822265625,4122.6923828125,4146.41015625,4134.8715820313,4140.0,33025,0.0,0.0,1.0,68.0
16.1953125,64,4125.384765625,4119.1025390625,4114.3588867188,4119.2309570313,4110.6411132813,4106.41015625,4105.7690429688,4113.58984375,4112.6923828125,4125.1284179688,4122.8203125,4141.0258789063,4135.8974609375,4140.6411132813,33025,0.0,0.0,1.0,68.0
16.203125,64,4125.2563476563,4118.9741210938,4120.384765625,4123.9741210938,4117.9487304688,4110.7690429688,4106.794921875,4123.58984375,4120.384765625,4126.41015625,4124.615234375,4142.9487304688,4130.8974609375,4143.9741210938,33025,0.0,0.0,1.0,68.0
16.2109375,64,4130.7690429688,4122.9487304688,4119.3588867188,4129.615234375,4115.6411132813,4110.2563476563,4108.3334960938,4118.7177734375,4110.7690429688,4123.3334960938,4120.7690429688,4134.2309570313,4124.615234375,4142.4360351563,33025,0.0,0.0,1.0,69.0
16.21875,64,4128.7177734375,4124.4873046875,4115.8974609375,4125.2563476563,4108.7177734375,4105.8974609375,4103.3334960938,4109.1025390625,4101.6665039063,4120.1284179688,4119.1025390625,4124.3588867188,4125.8974609375,4138.205078125,33025,0.0,0.0,1.0,69.0
16.2265625,64,4121.41015625,4116.9228515625,4111.0258789063,4120.5126953125,4109.7436523438,4103.8461914063,4095.8974609375,4106.794921875,4103.0771484375,4119.7436523438,4120.6411132813,4119.8715820313,4126.0258789063,4131.5385742188,33025,0.0,0.0,1.0,69.0
16.234375,64,4119.615234375,4112.3076171875,4103.3334960938,4119.7436523438,4105.6411132813,4105.384765625,4098.3334960938,4109.2309570313,4109.7436523438,4122.6923828125,4119.1025390625,4116.6665039063,4122.1796875,4129.8715820313,33025,0.0,0.0,1.0,69.0
16.2421875,64,4121.9228515625,4123.0771484375,4106.0258789063,4123.7177734375,4109.615234375,4108.8461914063,4107.3076171875,4117.6923828125,4119.615234375,4127.9487304688,4124.1025390625,4123.58984375,4130.2563476563,4140.2563476563,33025,0.0,0.0,1.0,70.0
16.25,65,4126.2822265625,4125.5126953125,4114.3588867188,4126.794921875,4117.8203125,4111.5385742188,4110.384765625,4125.5126953125,4125.1284179688,4128.0771484375,4125.0,4130.384765625,4136.794921875,4141.2822265625,33025,0.0,0.0,1.0,70.0
16.2578125,65,4122.3076171875,4112.0512695313,4111.0258789063,4121.5385742188,4114.2309570313,4116.5385742188,4110.6411132813,4122.8203125,4118.4614257813,4121.794921875,4106.9228515625,4116.2822265625,4122.5639648438,4123.0771484375,33025,0.0,0.0,1.0,70.0
16.265625,65,4119.7436523438,4107.6923828125,4108.58984375,4118.4614257813,4117.3076171875,4119.8715820313,4112.5639648438,4118.205078125,4115.2563476563,4120.6411132813,4095.8974609375,4111.9228515625,4113.0771484375,4119.8715820313,33025,0.0,0.0,1.0,70.0
16.2734375,65,4123.205078125,4111.41015625,4111.41015625,4122.8203125,4121.794921875,4114.4873046875,4111.6665039063,4118.7177734375,4119.615234375,4123.4614257813,4107.4360351563,4133.8461914063,4121.41015625,4131.794921875,33025,0.0,0.0,1.0,71.0
16.28125,65,4121.5385742188,4109.3588867188,4104.7436523438,4118.3334960938,4107.8203125,4109.1025390625,4111.0258789063,4122.1796875,4121.5385742188,4122.4360351563,4119.8715820313,4147.0512695313,4125.7690429688,4130.1284179688,33025,0.0,0.0,1.0,71.0
16.2890625,65,4117.5639648438,4107.9487304688,4098.7177734375,4107.1796875,4105.8974609375,4113.0771484375,4111.6665039063,4119.7436523438,4122.1796875,4122.5639648438,4121.1538085938,4141.5385742188,4126.0258789063,4122.1796875,33025,0.0,0.0,1.0,71.0
16.296875,65,4113.7177734375,4109.7436523438,4102.0512695313,4110.0,4118.0771484375,4114.615234375,4107.4360351563,4108.205078125,4119.8715820313,4122.0512695313,4118.7177734375,4131.2822265625,4132.3076171875,4120.2563476563,33025,0.0,0.0,1.0,71.0
16.3046875,65,4117.6923828125,4113.4614257813,4109.2309570313,4121.9228515625,4113.3334960938,4109.615234375,4106.0258789063,4109.4873046875,4120.5126953125,4125.384765625,4127.8203125,4123.8461914063,4138.3334960938,4126.1538085938,33025,0.0,0.0,1.0,72.0
16.3125,65,4123.7177734375,4115.2563476563,4108.8461914063,4122.9487304688,4110.0,4109.1025390625,4108.9741210938,4123.7177734375,4124.2309570313,4131.1538085938,4139.8715820313,4123.205078125,4140.2563476563,4137.0512695313,33025,0.0,0.0,1.0,72.0
16.3203125,65,4120.2563476563,4109.8715820313,4103.4614257813,4112.8203125,4106.2822265625,4106.5385742188,4105.1284179688,4125.0,4122.8203125,4128.3334960938,4134.1025390625,4124.7436523438,4134.4873046875,4140.8974609375,33025,0.0,0.0,1.0,72.0
16.328125,65,4118.0771484375,4103.3334960938,4106.2822265625,4106.6665039063,4096.5385742188,4102.4360351563,4099.8715820313,4120.384765625,4119.4873046875,4123.3334960938,4124.2309570313,4127.6923828125,4125.8974609375,4135.5126953125,33025,0.0,0.0,1.0,72.0
16.3359375,65,4119.8715820313,4105.1284179688,4111.1538085938,4109.1025390625,4108.205078125,4110.7690429688,4106.41015625,4124.8715820313,4118.7177734375,4125.0,4129.3588867188,4139.1025390625,4124.4873046875,4135.5126953125,33025,0.0,0.0,1.0,73.0
16.34375,65,4120.1284179688,4107.5639648438,4101.1538085938,4109.615234375,4126.794921875,4122.6923828125,4118.58984375,4126.6665039063,4116.9228515625,4124.1025390625,4127.0512695313,4138.0771484375,4125.6411132813,4138.8461914063,33025,0.0,0.0,1.0,73.0
16.3515625,65,4121.794921875,4107.1796875,4096.2822265625,4108.4614257813,4122.0512695313,4122.6923828125,4121.794921875,4125.2563476563,4115.7690429688,4119.1025390625,4115.0,4120.7690429688,4120.5126953125,4135.384765625,33025,0.0,0.0,1.0,73.0
16.359375,65,4121.794921875,4107.1796875,4096.2822265625,4108.4614257813,4122.0512695313,4122.6923828125,4121.794921875,4125.2563476563,4115.7690429688,4119.1025390625,4115.0,4120.7690429688,4120.5126953125,4135.384765625,33025,0.0,0.0,1.0,73.0
16.3671875,65,4125.1284179688,4113.205078125,4111.41015625,4117.5639648438,4118.3334960938,4120.384765625,4120.2563476563,4132.8203125,4127.4360351563,4127.0512695313,4123.8461914063,4127.3076171875,4120.2563476563,4137.5639648438,33025,0.0,0.0,1.0,74.0
16.375,65,4124.2309570313,4121.794921875,4116.9228515625,4125.6411132813,4128.4614257813,4125.5126953125,4120.8974609375,4141.0258789063,4140.7690429688,4139.4873046875,4141.1538085938,4146.6665039063,4131.2822265625,4144.615234375,33025,0.0,0.0,1.0,74.0
16.3828125,65,4120.8974609375,4123.205078125,4111.9228515625,4122.4360351563,4124.8715820313,4125.8974609375,4116.1538085938,4136.0258789063,4139.615234375,4139.615234375,4140.6411132813,4144.3588867188,4138.8461914063,4142.1796875,33025,0.0,0.0,1.0,74.0
16.390625,65,4121.5385742188,4115.384765625,4113.3334960938,4121.5385742188,4117.9487304688,4118.8461914063,4110.2563476563,4127.5639648438,4136.9228515625,4137.0512695313,4136.0258789063,4136.9228515625,4138.7177734375,4136.9228515625,33025,0.0,0.0,1.0,74.0
16.3984375,65,4123.7177734375,4108.7177734375,4116.9228515625,4125.2563476563,4122.0512695313,4118.58984375,4112.5639648438,4128.58984375,4141.41015625,4141.5385742188,4141.0258789063,4141.41015625,4137.5639648438,4138.58984375,33025,0.0,0.0,1.0,75.0
16.40625,65,4124.8715820313,4112.0512695313,4117.8203125,4122.6923828125,4123.58984375,4121.6665039063,4113.4614257813,4126.0258789063,4137.3076171875,4137.9487304688,4139.7436523438,4139.615234375,4134.1025390625,4137.4360351563,33025,0.0,0.0,1.0,75.0
16.4140625,65,4126.6665039063,4112.4360351563,4117.9487304688,4118.7177734375,4114.7436523438,4118.4614257813,4105.7690429688,4113.58984375,4119.2309570313,4123.8461914063,4127.3076171875,4126.41015625,4124.4873046875,4126.41015625,33025,0.0,0.0,1.0,75.0
16.421875,65,4123.205078125,4106.9228515625,4117.3076171875,4121.6665039063,4112.9487304688,4117.4360351563,4104.3588867188,4108.0771484375,4107.5639648438,4121.1538085938,4122.9487304688,4121.5385742188,4119.4873046875,4121.1538085938,33025,0.0,0.0,1.0,75.0
16.4296875,65,4118.0771484375,4107.9487304688,4109.7436523438,4119.1025390625,4115.8974609375,4119.7436523438,4106.0258789063,4110.2563476563,4107.9487304688,4119.7436523438,4122.0512695313,4117.6923828125,4121.9228515625,4124.615234375,33025,0.0,0.0,1.0,76.0
16.4375,65,4119.7436523438,4110.0,4104.4873046875,4111.41015625,4102.9487304688,4112.9487304688,4100.7690429688,4105.6411132813,4107.1796875,4112.6923828125,4113.8461914063,4106.5385742188,4120.384765625,4123.4614257813,33025,0.0,0.0,1.0,76.0
16.4453125,65,4118.9741210938,4107.4360351563,4108.205078125,4113.4614257813,4097.1796875,4104.2309570313,4100.384765625,4103.205078125,4105.5126953125,4115.1284179688,4116.6665039063,4108.8461914063,4120.2563476563,4125.8974609375,33025,0.0,0.0,1.0,76.0
16.453125,65,4122.8203125,4113.7177734375,4117.9487304688,4123.0771484375,4114.7436523438,4109.1025390625,4104.4873046875,4114.1025390625,4113.58984375,4126.41015625,4135.0,4127.5639648438,4129.2309570313,4141.1538085938,33025,0.0,0.0,1.0,76.0
16.4609375,65,4130.6411132813,4122.5639648438,4122.3076171875,4127.4360351563,4127.0512695313,4118.9741210938,4106.41015625,4124.3588867188,4125.7690429688,4135.1284179688,4144.1025390625,4139.3588867188,4138.0771484375,4153.58984375,33025,0.0,0.0,1.0,77.0
16.46875,65,4129.8715820313,4116.9228515625,4118.7177734375,4124.1025390625,4122.6923828125,4121.794921875,4113.7177734375,4125.2563476563,4129.8715820313,4140.6411132813,4141.794921875,4142.0512695313,4138.9741210938,4155.7690429688,33025,0.0,0.0,1.0,77.0
16.4765625,65,4127.5639648438,4108.4614257813,4118.9741210938,4121.2822265625,4121.5385742188,4120.7690429688,4120.384765625,4123.4614257813,4129.3588867188,4136.41015625,4142.6923828125,4141.1538085938,4136.6665039063,4151.41015625,33025,0.0,0.0,1.0,77.0
16.484375,65,4125.2563476563,4108.3334960938,4116.1538085938,4121.2822265625,4119.4873046875,4116.794921875,4112.4360351563,4118.8461914063,4124.7436523438,4126.41015625,4137.3076171875,4129.4873046875,4132.6923828125,4142.8203125,33025,0.0,0.0,1.0,77.0
16.4921875,65,4125.0,4111.1538085938,4113.8461914063,4122.5639648438,4115.0,4109.8715820313,4099.8715820313,4106.0258789063,4112.0512695313,4122.0512695313,4123.3334960938,4113.4614257813,4123.58984375,4136.9228515625,33025,0.0,0.0,1.0,78.0
16.5,66,4125.0,4112.5639648438,4117.6923828125,4122.9487304688,4113.8461914063,4106.6665039063,4093.8461914063,4093.9743652344,4103.0771484375,4115.6411132813,4118.3334960938,4106.794921875,4112.4360351563,4139.615234375,33025,0.0,0.0,1.0,78.0
16.5078125,66,4120.384765625,4112.3076171875,4117.4360351563,4121.9228515625,4112.4360351563,4111.794921875,4093.8461914063,4096.794921875,4104.3588867188,4108.8461914063,4118.7177734375,4109.2309570313,4108.4614257813,4141.0258789063,33025,0.0,0.0,1.0,78.0
16.515625,66,4113.8461914063,4108.7177734375,4112.5639648438,4119.1025390625,4116.0258789063,4120.1284179688,4101.2822265625,4101.6665039063,4103.7177734375,4108.9741210938,4110.0,4106.2822265625,4106.794921875,4129.615234375,33025,0.0,0.0,1.0,78.0
16.5234375,66,4111.1538085938,4106.0258789063,4107.3076171875,4116.5385742188,4126.0258789063,4127.3076171875,4110.6411132813,4101.2822265625,4103.8461914063,4108.8461914063,4102.9487304688,4102.0512695313,4105.1284179688,4123.8461914063,33025,0.0,0.0,1.0,79.0
16.53125,66,4116.6665039063,4106.6665039063,4106.794921875,4117.1796875,4124.615234375,4122.6923828125,4106.6665039063,4102.5639648438,4107.9487304688,4107.6923828125,4111.1538085938,4109.615234375,4111.5385742188,4134.2309570313,33025,0.0,0.0,1.0,79.0
16.5390625,66,4118.4614257813,4104.2309570313,4112.5639648438,4118.0771484375,4108.205078125,4110.5126953125,4098.0771484375,4106.9228515625,4108.0771484375,4114.615234375,4121.6665039063,4122.1796875,4118.9741210938,4141.1538085938,33025,0.0,0.0,1.0,79.0
16.546875,66,4116.5385742188,4104.2309570313,4115.7690429688,4118.8461914063,4100.7690429688,4107.9487304688,4094.6154785156,4110.6411132813,4107.9487304688,4122.6923828125,4123.205078125,4125.0,4116.5385742188,4139.1025390625,33025,0.0,0.0,1.0,79.0
16.5546875,66,4118.58984375,4112.1796875,4114.3588867188,4124.2309570313,4112.1796875,4108.7177734375,4092.9487304688,4110.6411132813,4111.0258789063,4122.0512695313,4121.9228515625,4120.384765625,4111.5385742188,4137.1796875,33025,0.0,0.0,1.0,80.0
16.5625,66,4116.2822265625,4114.1025390625,4113.0771484375,4127.9487304688,4125.0,4110.7690429688,4095.7692871094,4111.5385742188,4114.2309570313,4120.1284179688,4119.7436523438,4131.9228515625,4110.2563476563,4135.6411132813,33025,0.0,0.0,1.0,80.0
16.5703125,66,4114.1025390625,4107.4360351563,4116.1538085938,4126.5385742188,4122.1796875,4115.7690429688,4098.205078125,4108.9741210938,4107.3076171875,4115.5126953125,4110.2563476563,4155.6411132813,4108.3334960938,4134.1025390625,33025,0.0,0.0,1.0,80.0
16.578125,66,4115.8974609375,4104.8715820313,4113.205078125,4124.1025390625,4114.4873046875,4112.9487304688,4089.6154785156,4099.3588867188,4094.8718261719,4106.2822265625,4101.9228515625,4176.0258789063,4104.3588867188,4138.4614257813,33025,0.0,0.0,1.0,80.0
16.5859375,66,4116.41015625,4105.7690429688,4105.8974609375,4117.0512695313,4113.7177734375,4103.3334960938,4080.3845214844,4099.4873046875,4100.2563476563,4109.8715820313,4111.6665039063,4185.1284179688,4108.4614257813,4144.2309570313,33025,0.0,0.0,1.0,81.0
16.59375,66,4117.9487304688,4101.5385742188,4107.0512695313,4109.4873046875,4107.4360351563,4101.41015625,4081.5385742188,4110.5126953125,4114.615234375,4123.8461914063,4125.0,4169.7436523438,4119.4873046875,4144.8715820313,33025,0.0,0.0,1.0,81.0
16.6015625,66,4114.1025390625,4095.0,4110.384765625,4107.5639648438,4101.1538085938,4099.8715820313,4080.8974609375,4107.3076171875,4111.6665039063,4124.4873046875,4120.7690429688,4142.0512695313,4122.9487304688,4140.384765625,33025,0.0,0.0,1.0,81.0
16.609375,66,4111.1538085938,4096.9228515625,4109.4873046875,4110.1284179688,4107.4360351563,4095.6411132813,4076.6667480469,4095.7692871094,4105.1284179688,4116.9228515625,4112.6923828125,4126.9228515625,4114.4873046875,4138.4614257813,33025,0.0,0.0,1.0,81.0
16.6171875,66,4117.1796875,4104.3588867188,4108.0771484375,4110.5126953125,4103.9741210938,4095.1281738281,4078.9743652344,4097.0512695313,4107.1796875,4113.8461914063,4112.6923828125,4126.0258789063,4108.0771484375,4143.205078125,33025,0.0,0.0,1.0,82.0
16.625,66,4117.1796875,4105.8974609375,4108.205078125,4107.3076171875,4089.4870605469,4095.3845214844,4080.8974609375,4096.5385742188,4099.1025390625,4111.2822265625,4111.2822265625,4121.6665039063,4107.6923828125,4142.0512695313,33025,0.0,0.0,1.0,82.0
16.6328125,66,4115.384765625,4104.7436523438,4111.794921875,4108.0771484375,4096.6665039063,4102.8203125,4080.1281738281,4084.6154785156,4082.6923828125,4103.58984375,4105.2563476563,4116.5385742188,4101.1538085938,4136.794921875,33025,0.0,0.0,1.0,82.0
16.640625,66,4118.0771484375,4108.205078125,4110.8974609375,4109.3588867188,4107.8203125,4106.1538085938,4077.5642089844,4076.9230957031,4074.4870605469,4094.2307128906,4097.8203125,4110.6411132813,4089.6154785156,4137.3076171875,33025,0.0,0.0,1.0,82.0
16.6484375,66,4116.6665039063,4110.5126953125,4106.9228515625,4108.9741210938,4103.8461914063,4097.9487304688,4073.205078125,4074.8718261719,4071.794921875,4088.7180175781,4088.4614257813,4104.8715820313,4078.58984375,4132.4360351563,33025,0.0,0.0,1.0,83.0
16.65625,66,4111.41015625,4108.7177734375,4104.7436523438,4106.794921875,4106.1538085938,4095.7692871094,4072.1794433594,4073.205078125,4068.3332519531,4086.5385742188,4083.3332519531,4103.58984375,4072.3076171875,4123.9741210938,33025,0.0,0.0,1.0,83.0
16.6640625,66,4107.6923828125,4107.6923828125,4104.4873046875,4108.8461914063,4110.0,4099.615234375,4074.7436523438,4081.1538085938,4075.2563476563,4091.41015625,4086.0256347656,4103.3334960938,4078.9743652344,4128.8461914063,33025,0.0,0.0,1.0,83.0
16.671875,66,4113.205078125,4105.2563476563,4108.3334960938,4113.9741210938,4105.2563476563,4099.3588867188,4078.0769042969,4094.6154785156,4093.0769042969,4103.4614257813,4095.1281738281,4113.8461914063,4093.0769042969,4140.1284179688,33025,0.0,0.0,1.0,83.0
16.6796875,66,4115.8974609375,4097.4360351563,4109.2309570313,4111.2822265625,4103.9741210938,4096.41015625,4079.4870605469,4095.3845214844,4097.4360351563,4110.1284179688,4103.8461914063,4124.8715820313,4096.1538085938,4139.2309570313,33025,0.0,0.0,1.0,84.0
16.6875,66,4113.58984375,4086.1538085938,4105.5126953125,4105.7690429688,4098.0771484375,4093.7180175781,4077.8205566406,4093.205078125,4090.7692871094,4105.384765625,4105.7690429688,4125.0,4088.58984375,4138.0771484375,33025,0.0,0.0,1.0,84.0
16.6953125,66,4115.7690429688,4084.1025390625,4112.0512695313,4103.9741210938,4087.1794433594,4096.1538085938,4078.8461914063,4102.9487304688,4098.4614257813,4105.8974609375,4106.41015625,4127.9487304688,4095.6411132813,4149.7436523438,33025,0.0,0.0,1.0,84.0
16.703125,66,4116.2822265625,4087.1794433594,4117.0512695313,4104.7436523438,4093.205078125,4105.1284179688,4086.1538085938,4104.2309570313,4103.205078125,4109.8715820313,4107.1796875,4126.41015625,4106.41015625,4158.0771484375,33025,0.0,0.0,1.0,84.0
16.7109375,66,4116.41015625,4087.1794433594,4113.58984375,4108.58984375,4104.8715820313,4109.7436523438,4091.6667480469,4096.1538085938,4090.5129394531,4105.2563476563,4105.5126953125,4120.6411132813,4100.7690429688,4157.4360351563,33025,0.0,0.0,1.0,85.0
16.71875,66,4117.5639648438,4092.9487304688,4115.0,4111.5385742188,4107.0512695313,4105.2563476563,4092.4357910156,4099.1025390625,4090.3845214844,4103.9741210938,4104.615234375,4120.384765625,4094.4870605469,4156.794921875,33025,0.0,0.0,1.0,85.0
16.7265625,66,4115.2563476563,4102.5639648438,4114.7436523438,4111.1538085938,4108.9741210938,4100.8974609375,4092.6923828125,4103.58984375,4099.4873046875,4107.9487304688,4104.8715820313,4117.3076171875,4096.41015625,4154.8715820313,33025,0.0,0.0,1.0,85.0
16.734375,66,4117.3076171875,4114.615234375,4112.4360351563,4116.9228515625,4107.6923828125,4098.0771484375,4085.2563476563,4099.4873046875,4097.9487304688,4106.6665039063,4104.615234375,4113.7177734375,4098.58984375,4155.6411132813,33025,0.0,0.0,1.0,85.0
16.7421875,66,4119.7436523438,4123.7177734375,4115.384765625,4121.9228515625,4106.41015625,4096.2822265625,4075.5129394531,4099.615234375,4101.41015625,4106.6665039063,4108.3334960938,4120.6411132813,4098.0771484375,4160.0,33025,0.0,0.0,1.0,86.0
16.75,67,4115.384765625,4116.794921875,4107.4360351563,4108.4614257813,4107.0512695313,4099.615234375,4080.3845214844,4100.0,4103.9741210938,4107.9487304688,4108.4614257813,4117.6923828125,4093.9743652344,4155.2563476563,33025,0.0,0.0,1.0,86.0
16.7578125,67,4108.3334960938,4104.2309570313,4095.6411132813,4097.0512695313,4103.8461914063,4105.0,4088.3332519531,4093.0769042969,4094.4870605469,4102.3076171875,4105.6411132813,4105.1284179688,4088.205078125,4148.8461914063,33025,0.0,0.0,1.0,86.0
16.765625,67,4104.615234375,4104.7436523438,4095.5129394531,4104.2309570313,4099.7436523438,4103.58984375,4084.7436523438,4090.5129394531,4089.8718261719,4101.0258789063,4107.6923828125,4106.0258789063,4090.2563476563,4152.6923828125,33025,0.0,0.0,1.0,86.0
16.7734375,67,4107.0512695313,4111.1538085938,4101.0258789063,4111.6665039063,4100.5126953125,4093.4614257813,4075.7692871094,4090.8974609375,4090.5129394531,4105.7690429688,4102.1796875,4112.5639648438,4092.3076171875,4154.8715820313,33025,0.0,0.0,1.0,87.0
16.78125,67,4112.5639648438,4118.205078125,4113.58984375,4116.0258789063,4106.0258789063,4095.2563476563,4077.1794433594,4094.1025390625,4093.8461914063,4103.58984375,4093.205078125,4125.8974609375,4089.6154785156,4159.3588867188,33025,0.0,0.0,1.0,87.0
16.7890625,67,4118.58984375,4128.8461914063,4132.0512695313,4125.8974609375,4104.615234375,4105.8974609375,4089.1025390625,4105.8974609375,4103.7177734375,4098.58984375,4092.6923828125,4144.4873046875,4090.2563476563,4172.6923828125,33025,0.0,0.0,1.0,87.0
16.796875,67,4117.3076171875,4131.794921875,4135.7690429688,4134.4873046875,4099.7436523438,4104.7436523438,4092.6923828125,4108.205078125,4103.7177734375,4095.5129394531,4082.5642089844,4146.41015625,4085.8974609375,4175.384765625,33025,0.0,0.0,1.0,87.0
27.7109375,110,4110.8974609375,4078.3332519531,4106.1538085938,4107.8203125,4102.0512695313,4105.6411132813,4200.7690429688,4129.7436523438,4128.0771484375,4122.9487304688,4135.384765625,4095.1281738281,4141.1538085938,4139.2309570313,33026,27.7138919518,0.0,1.0,
27.71875,110,4115.7690429688,4077.3076171875,4105.7690429688,4112.4360351563,4099.8715820313,4105.8974609375,4202.3076171875,4126.6665039063,4127.9487304688,4123.0771484375,4129.4873046875,4105.5126953125,4143.205078125,4143.7177734375,33026,0.0,0.0,2.0,
27.7265625,110,4120.2563476563,4086.6667480469,4118.9741210938,4120.384765625,4106.9228515625,4114.7436523438,4204.2309570313,4113.9741210938,4120.0,4115.8974609375,4127.8203125,4106.41015625,4140.0,4138.7177734375,33026,0.0,0.0,2.0,
27.734375,110,4116.2822265625,4093.7180175781,4117.4360351563,4122.4360351563,4110.1284179688,4120.5126953125,4202.6923828125,4106.9228515625,4110.5126953125,4107.6923828125,4117.4360351563,4087.3076171875,4126.41015625,4126.0258789063,33026,0.0,0.0,2.0,
27.7421875,110,4114.7436523438,4089.6154785156,4105.0,4121.9228515625,4104.1025390625,4111.41015625,4201.0258789063,4107.1796875,4112.3076171875,4105.384765625,4105.2563476563,4075.2563476563,4118.8461914063,4119.615234375,33026,0.0,0.0,2.0,
27.75,111,4114.1025390625,4088.205078125,4102.6923828125,4122.1796875,4103.9741210938,4106.1538085938,4201.0258789063,4106.41015625,4116.6665039063,4105.7690429688,4101.9228515625,4073.7180175781,4121.41015625,4121.1538085938,33026,0.0,0.0,2.0,
27.7578125,111,4112.1796875,4091.0256347656,4100.8974609375,4118.7177734375,4109.8715820313,4113.205078125,4200.0,4104.3588867188,4108.0771484375,4106.0258789063,4103.8461914063,4075.8974609375,4122.3076171875,4121.41015625,33026,0.0,0.0,2.0,
27.765625,111,4112.9487304688,4092.6923828125,4105.1284179688,4119.1025390625,4109.7436523438,4114.2309570313,4198.7177734375,4102.9487304688,4104.4873046875,4105.7690429688,4111.5385742188,4083.7180175781,4127.1796875,4121.41015625,33026,0.0,0.0,2.0,
27.7734375,111,4113.4614257813,4093.8461914063,4115.1284179688,4124.4873046875,4106.41015625,4111.794921875,4199.4873046875,4106.0258789063,4118.7177734375,4108.3334960938,4119.8715820313,4081.794921875,4133.9741210938,4127.1796875,33026,0.0,0.0,2.0,
27.78125,111,4114.1025390625,4092.0512695313,4113.0771484375,4120.6411132813,4106.1538085938,4113.3334960938,4199.4873046875,4114.615234375,4129.4873046875,4115.7690429688,4119.1025390625,4075.7692871094,4133.0771484375,4132.3076171875,33026,0.0,0.0,2.0,
27.7890625,111,4116.2822265625,4089.8718261719,4111.794921875,4114.7436523438,4107.0512695313,4108.7177734375,4199.615234375,4122.3076171875,4128.4614257813,4122.5639648438,4119.1025390625,4091.794921875,4135.384765625,4136.1538085938,33026,0.0,0.0,2.0,
27.796875,111,4119.4873046875,4093.205078125,4119.3588867188,4120.8974609375,4107.5639648438,4109.2309570313,4201.41015625,4125.7690429688,4128.8461914063,4123.58984375,4126.41015625,4109.7436523438,4143.7177734375,4140.5126953125,33026,0.0,0.0,2.0,
27.8046875,111,4116.794921875,4093.58984375,4112.1796875,4123.0771484375,4111.0258789063,4117.3076171875,4200.7690429688,4123.3334960938,4126.41015625,4122.5639648438,4129.3588867188,4113.8461914063,4141.794921875,4138.0771484375,33026,0.0,0.0,2.0,
27.8125,111,4113.0771484375,4083.58984375,4100.2563476563,4113.58984375,4113.205078125,4117.6923828125,4201.2822265625,4121.9228515625,4126.0258789063,4124.615234375,4133.7177734375,4128.4614257813,4143.7177734375,4134.8715820313,33026,0.0,0.0,2.0,
27.8203125,111,4118.4614257813,4074.2307128906,4108.4614257813,4108.7177734375,4109.3588867188,4110.6411132813,4203.205078125,4128.205078125,4132.5639648438,4127.3076171875,4141.2822265625,4146.2822265625,4154.615234375,4139.4873046875,33026,0.0,0.0,2.0,
27.828125,111,4116.9228515625,4074.3588867188,4113.58984375,4109.1025390625,4106.2822265625,4106.41015625,4197.4360351563,4127.9487304688,4129.3588867188,4124.1025390625,4135.8974609375,4130.6411132813,4149.3588867188,4139.4873046875,33026,0.0,0.0,2.0,
27.8359375,111,4106.9228515625,4076.41015625,4103.58984375,4110.5126953125,4106.1538085938,4106.5385742188,4187.3076171875,4111.5385742188,4112.9487304688,4112.1796875,4124.8715820313,4098.8461914063,4137.1796875,4126.6665039063,33026,0.0,0.0,2.0,
27.84375,111,4104.3588867188,4074.4870605469,4098.205078125,4112.0512695313,4106.5385742188,4110.5126953125,4188.0771484375,4100.7690429688,4101.2822265625,4101.6665039063,4119.3588867188,4093.4614257813,4133.0771484375,4115.8974609375,33026,0.0,0.0,2.0,
27.8515625,111,4108.9741210938,4075.1281738281,4104.3588867188,4111.5385742188,4108.58984375,4108.7177734375,4190.8974609375,4114.4873046875,4112.8203125,4109.8715820313,4124.3588867188,4109.8715820313,4136.9228515625,4124.3588867188,33026,0.0,0.0,2.0,
27.859375,111,4117.0512695313,4077.6923828125,4110.2563476563,4109.1025390625,4102.0512695313,4100.2563476563,4185.7690429688,4122.4360351563,4126.9228515625,4123.3334960938,4133.4614257813,4113.9741210938,4146.6665039063,4138.7177734375,33026,0.0,0.0,2.0,
27.8671875,111,4117.3076171875,4078.205078125,4108.205078125,4111.41015625,4098.9741210938,4104.8715820313,4183.8461914063,4108.4614257813,4121.2822265625,4122.8203125,4135.5126953125,4110.384765625,4149.3588867188,4137.1796875,33026,0.0,0.0,2.0,
27.875,111,4108.3334960938,4080.3845214844,4106.9228515625,4116.6665039063,4104.1025390625,4106.2822265625,4183.205078125,4100.1284179688,4114.1025390625,4120.2563476563,4137.3076171875,4122.4360351563,4144.7436523438,4124.7436523438,33026,0.0,0.0,2.0,
27.8828125,111,4104.615234375,4081.9230957031,4106.5385742188,4116.6665039063,4095.8974609375,4091.1538085938,4178.58984375,4102.1796875,4118.7177734375,4118.8461914063,4138.0771484375,4130.0,4139.615234375,4117.6923828125,33026,0.0,0.0,2.0,
27.890625,111,4114.1025390625,4085.0,4107.3076171875,4116.6665039063,4090.2563476563,4092.5642089844,4182.0512695313,4104.2309570313,4121.9228515625,4117.1796875,4135.7690429688,4120.384765625,4138.8461914063,4121.0258789063,33026,0.0,0.0,2.0,
27.8984375,111,4122.5639648438,4090.3845214844,4120.6411132813,4123.205078125,4107.5639648438,4106.0258789063,4188.9741210938,4103.8461914063,4117.1796875,4121.9228515625,4138.9741210938,4121.6665039063,4142.5639648438,4126.794921875,33026,0.0,0.0,2.0,
27.90625,111,4116.794921875,4092.4357910156,4128.0771484375,4127.0512695313,4114.615234375,4104.3588867188,4184.7436523438,4096.9228515625,4109.1025390625,4118.3334960938,4137.6923828125,4125.1284179688,4143.0771484375,4126.794921875,33026,0.0,0.0,2.0,
27.9140625,111,4114.3588867188,4096.41015625,4113.9741210938,4124.3588867188,4102.1796875,4102.5639648438,4180.8974609375,4092.4357910156,4101.9228515625,4104.4873046875,4125.384765625,4110.2563476563,4137.3076171875,4126.2822265625,33026,0.0,0.0,2.0,
27.921875,111,4121.41015625,4104.8715820313,4108.8461914063,4127.0512695313,4108.9741210938,4109.1025390625,4187.3076171875,4102.9487304688,4110.0,4108.205078125,4125.6411132813,4106.1538085938,4135.0,4134.3588867188,33026,0.0,0.0,2.0,
27.9296875,111,4122.0512695313,4111.1538085938,4123.9741210938,4138.4614257813,4123.0771484375,4108.3334960938,4187.9487304688,4113.205078125,4124.1025390625,4124.2309570313,4139.7436523438,4123.8461914063,4141.6665039063,4142.3076171875,33026,0.0,0.0,2.0,
27.9375,111,4118.4614257813,4108.8461914063,4129.1025390625,4143.58984375,4116.5385742188,4105.5126953125,4176.0258789063,4107.5639648438,4118.7177734375,4125.8974609375,4141.1538085938,4127.9487304688,4143.9741210938,4136.41015625,33026,0.0,0.0,2.0,
27.9453125,111,4122.0512695313,4098.8461914063,4113.58984375,4131.794921875,4107.3076171875,4108.205078125,4169.2309570313,4099.615234375,4110.8974609375,4117.9487304688,4130.8974609375,4113.4614257813,4137.0512695313,4121.5385742188,33026,0.0,0.0,2.0,
27.953125,111,4132.4360351563,4093.205078125,4101.794921875,4119.1025390625,4107.9487304688,4107.9487304688,4175.1284179688,4094.3588867188,4107.3076171875,4110.8974609375,4119.4873046875,4108.205078125,4128.0771484375,4112.5639648438,33026,0.0,0.0,2.0,
27.9609375,111,4130.8974609375,4094.3588867188,4104.4873046875,4124.2309570313,4109.1025390625,4101.2822265625,4170.7690429688,4087.5642089844,4094.6154785156,4104.3588867188,4108.205078125,4108.8461914063,4121.1538085938,4108.58984375,33026,0.0,0.0,2.0,89.0
27.96875,111,4120.2563476563,4093.4614257813,4106.6665039063,4133.205078125,4103.4614257813,4096.794921875,4160.5126953125,4086.0256347656,4091.2819824219,4104.615234375,4106.6665039063,4107.3076171875,4116.5385742188,4102.6923828125,33026,0.0,0.0,2.0,89.0
27.9765625,111,4122.0512695313,4096.6665039063,4110.384765625,4136.794921875,4101.794921875,4099.2309570313,4164.1025390625,4092.6923828125,4106.1538085938,4108.0771484375,4107.6923828125,4115.7690429688,4112.3076171875,4099.1025390625,33026,0.0,0.0,2.0,89.0
27.984375,111,4131.9228515625,4106.41015625,4122.8203125,4147.0512695313,4099.615234375,4099.7436523438,4166.6665039063,4098.0771484375,4108.7177734375,4102.4360351563,4092.9487304688,4125.7690429688,4110.6411132813,4103.9741210938,33026,0.0,0.0,2.0,89.0
27.9921875,111,4135.8974609375,4112.5639648438,4137.9487304688,4164.8715820313,4092.0512695313,4095.5129394531,4161.794921875,4093.7180175781,4100.384765625,4094.1025390625,4078.58984375,4123.7177734375,4109.1025390625,4107.1796875,33026,0.0,0.0,2.0,90.0
28.0,112,4130.1284179688,4113.7177734375,4145.0,4170.384765625,4093.205078125,4091.6667480469,4152.8203125,4080.7692871094,4094.2307128906,4087.9487304688,4071.5385742188,4115.6411132813,4099.615234375,4096.9228515625,33026,0.0,0.0,2.0,90.0
28.0078125,112,4120.384765625,4112.4360351563,4138.3334960938,4168.0771484375,4103.4614257813,4089.6154785156,4140.8974609375,4064.1025390625,4080.3845214844,4077.4357910156,4048.205078125,4105.8974609375,4081.1538085938,4078.3332519531,33026,0.0,0.0,2.0,90.0
28.015625,112,4120.6411132813,4107.8203125,4126.794921875,4166.0258789063,4110.0,4090.3845214844,4140.2563476563,4057.5642089844,4070.6411132813,4067.0512695313,4019.7436523438,4092.9487304688,4062.9487304688,4065.3845214844,33026,0.0,0.0,2.0,90.0
28.0234375,112,4121.794921875,4105.7690429688,4122.8203125,4159.4873046875,4100.6411132813,4090.5129394531,4146.6665039063,4064.6154785156,4072.5642089844,4062.6923828125,4019.3588867188,4088.4614257813,4061.2819824219,4067.3076171875,33026,0.0,0.0,2.0,91.0
28.03125,112,4120.0,4106.2822265625,4123.58984375,4152.1796875,4086.794921875,4088.58984375,4147.6923828125,4071.0256347656,4073.3332519531,4061.794921875,4029.3588867188,4093.0769042969,4073.3332519531,4076.0256347656,33026,0.0,0.0,2.0,91.0
28.0390625,112,4123.9741210938,4104.2309570313,4122.1796875,4151.6665039063,4093.7180175781,4093.3332519531,4152.8203125,4074.8718261719,4080.7692871094,4067.9487304688,4031.794921875,4092.1794433594,4078.0769042969,4076.1538085938,33026,0.0,0.0,2.0,91.0
28.046875,112,4124.615234375,4104.2309570313,4120.0,4159.2309570313,4106.1538085938,4098.8461914063,4157.9487304688,4075.8974609375,4088.3332519531,4077.5642089844,4040.1281738281,4088.0769042969,4079.1025390625,4073.7180175781,33026,0.0,0.0,2.0,91.0
28.0546875,112,4122.5639648438,4110.7690429688,4122.8203125,4168.3334960938,4101.1538085938,4093.205078125,4153.0771484375,4068.58984375,4079.1025390625,4076.41015625,4046.1538085938,4090.3845214844,4084.8718261719,4082.1794433594,33026,0.0,0.0,2.0,92.0
28.0625,112,4130.2563476563,4120.7690429688,4125.8974609375,4168.9741210938,4098.205078125,4089.4870605469,4152.3076171875,4063.205078125,4071.41015625,4072.6923828125,4045.8974609375,4091.9230957031,4089.6154785156,4092.1794433594,33026,0.0,0.0,2.0,92.0
28.0703125,112,4133.9741210938,4124.2309570313,4128.205078125,4163.58984375,4107.1796875,4093.0769042969,4153.3334960938,4066.0256347656,4078.58984375,4078.0769042969,4054.4870605469,4083.7180175781,4090.6411132813,4089.8718261719,33026,0.0,0.0,2.0,92.0
28.078125,112,4127.6923828125,4120.5126953125,4136.1538085938,4165.0,4107.9487304688,4093.3332519531,4149.7436523438,4067.3076171875,4081.1538085938,4079.6154785156,4061.2819824219,4079.2307128906,4092.1794433594,4085.8974609375,33026,0.0,0.0,2.0,92.0
28.0859375,112,4126.6665039063,4122.3076171875,4141.9228515625,4170.1284179688,4104.3588867188,4091.9230957031,4153.4614257813,4069.2307128906,4079.4870605469,4078.0769042969,4060.3845214844,4083.8461914063,4091.41015625,4090.2563476563,33026,0.0,0.0,2.0,93.0
28.09375,112,4129.7436523438,4125.0,4138.9741210938,4170.7690429688,4101.1538085938,4092.8205566406,4153.4614257813,4075.2563476563,4084.7436523438,4083.9743652344,4064.6154785156,4088.0769042969,4091.1538085938,4093.0769042969,33026,0.0,0.0,2.0,93.0
28.1015625,112,4129.3588867188,4122.1796875,4137.9487304688,4165.7690429688,4089.3588867188,4089.8718261719,4143.7177734375,4076.794921875,4092.1794433594,4088.9743652344,4070.3845214844,4089.4870605469,4099.1025390625,4092.5642089844,33026,0.0,0.0,2.0,93.0
28.109375,112,4129.8715820313,4119.8715820313,4142.4360351563,4156.1538085938,4084.8718261719,4088.205078125,4139.1025390625,4072.6923828125,4092.1794433594,4085.0,4068.0769042969,4091.9230957031,4105.7690429688,4095.5129394531,33026,0.0,0.0,2.0,93.0
28.1171875,112,4132.9487304688,4118.4614257813,4138.4614257813,4156.1538085938,4092.1794433594,4090.3845214844,4138.205078125,4068.58984375,4084.8718261719,4079.3588867188,4064.4870605469,4091.2819824219,4104.2309570313,4098.3334960938,33026,0.0,0.0,2.0,94.0
28.125,112,4135.0,4121.2822265625,4135.6411132813,4168.9741210938,4095.5129394531,4092.6923828125,4135.0,4071.794921875,4085.3845214844,4085.3845214844,4071.5385742188,4091.9230957031,4106.0258789063,4103.7177734375,33026,0.0,0.0,2.0,94.0
28.1328125,112,4136.1538085938,4121.5385742188,4138.0771484375,4170.5126953125,4092.8205566406,4093.3332519531,4136.6665039063,4080.6411132813,4094.3588867188,4093.9743652344,4077.6923828125,4094.7436523438,4110.6411132813,4107.9487304688,33026,0.0,0.0,2.0,94.0
28.140625,112,4132.9487304688,4111.1538085938,4134.1025390625,4158.205078125,4092.4357910156,4088.4614257813,4135.1284179688,4082.1794433594,4093.3332519531,4090.6411132813,4071.41015625,4086.6667480469,4107.5639648438,4100.2563476563,33026,0.0,0.0,2.0,94.0
28.1484375,112,4131.5385742188,4104.3588867188,4134.615234375,4156.9228515625,4093.58984375,4080.2563476563,4127.6923828125,4082.1794433594,4087.0512695313,4087.8205566406,4068.4614257813,4082.4357910156,4106.2822265625,4098.0771484375,33026,0.0,0.0,2.0,95.0
28.15625,112,4141.0258789063,4109.2309570313,4141.0258789063,4161.6665039063,4089.4870605469,4081.0256347656,4131.1538085938,4089.7436523438,4098.7177734375,4093.4614257813,4076.0256347656,4090.6411132813,4108.0771484375,4106.6665039063,33026,0.0,0.0,2.0,95.0
28.1640625,112,4141.6665039063,4110.8974609375,4139.2309570313,4155.2563476563,4089.2307128906,4091.5385742188,4144.1025390625,4094.1025390625,4105.2563476563,4092.0512695313,4075.6411132813,4089.6154785156,4100.2563476563,4101.6665039063,33026,0.0,0.0,2.0,95.0
28.171875,112,4131.0258789063,4105.384765625,4135.8974609375,4151.1538085938,4091.1538085938,4095.0,4145.8974609375,4091.5385742188,4092.3076171875,4085.2563476563,4066.794921875,4078.8461914063,4094.8718261719,4089.6154785156,33026,0.0,0.0,2.0,95.0
28.1796875,112,4129.2309570313,4104.2309570313,4137.3076171875,4153.8461914063,4081.794921875,4087.8205566406,4137.3076171875,4090.2563476563,4092.4357910156,4088.4614257813,4063.0769042969,4081.1538085938,4095.7692871094,4088.205078125,33026,0.0,0.0,2.0,96.0
28.1875,112,4129.8715820313,4106.2822265625,4133.7177734375,4147.9487304688,4078.205078125,4087.4357910156,4137.8203125,4090.3845214844,4105.0,4091.2819824219,4060.5129394531,4097.9487304688,4093.7180175781,4085.3845214844,33026,0.0,0.0,2.0,96.0
28.1953125,112,4125.6411132813,4103.58984375,4127.3076171875,4137.5639648438,4090.1281738281,4094.1025390625,4142.6923828125,4085.3845214844,4098.205078125,4083.4614257813,4056.9230957031,4107.3076171875,4092.5642089844,4079.7436523438,33026,0.0,0.0,2.0,96.0
28.203125,112,4127.4360351563,4101.0258789063,4123.8461914063,4136.9228515625,4094.7436523438,4094.7436523438,4139.615234375,4078.4614257813,4080.2563476563,4075.0,4057.4357910156,4110.8974609375,4092.5642089844,4084.4870605469,33026,0.0,0.0,2.0,96.0
28.2109375,112,4132.0512695313,4098.7177734375,4122.5639648438,4138.58984375,4091.0256347656,4091.0256347656,4135.0,4077.4357910156,4081.794921875,4074.2307128906,4060.8974609375,4110.7690429688,4090.5129394531,4091.794921875,33026,0.0,0.0,2.0,97.0
28.21875,112,4130.2563476563,4092.6923828125,4123.9741210938,4134.8715820313,4086.5385742188,4090.8974609375,4137.6923828125,4081.2819824219,4089.2307128906,4078.205078125,4061.1538085938,4100.7690429688,4090.6411132813,4090.3845214844,33026,0.0,0.0,2.0,97.0
28.2265625,112,4130.7690429688,4092.1794433594,4121.9228515625,4133.7177734375,4082.1794433594,4091.794921875,4142.4360351563,4083.4614257813,4090.7692871094,4079.7436523438,4060.1281738281,4095.0,4094.3588867188,4093.7180175781,33026,0.0,0.0,2.0,97.0
28.234375,112,4136.1538085938,4098.3334960938,4121.794921875,4138.205078125,4084.6154785156,4090.7692871094,4136.6665039063,4080.3845214844,4090.7692871094,4078.58984375,4066.794921875,4103.205078125,4097.4360351563,4105.6411132813,33026,0.0,0.0,2.0,97.0
28.2421875,112,4128.9741210938,4096.1538085938,4126.6665039063,4138.7177734375,4088.7180175781,4090.5129394531,4123.3334960938,4071.9230957031,4083.4614257813,4077.5642089844,4068.4614257813,4107.1796875,4094.2307128906,4104.4873046875,33026,0.0,0.0,2.0,98.0
28.25,113,4120.8974609375,4090.2563476563,4118.4614257813,4129.8715820313,4085.2563476563,4083.8461914063,4113.4614257813,4066.41015625,4074.1025390625,4075.2563476563,4051.1538085938,4097.8203125,4084.3588867188,4090.1281738281,33026,0.0,0.0,2.0,98.0
28.2578125,113,4122.8203125,4088.9743652344,4105.5126953125,4122.8203125,4080.0,4076.41015625,4111.9228515625,4070.3845214844,4073.3332519531,4072.0512695313,4042.0512695313,4097.1796875,4081.5385742188,4084.8718261719,33026,0.0,0.0,2.0,98.0
28.265625,113,4119.7436523438,4084.7436523438,4109.615234375,4123.0771484375,4081.1538085938,4083.7180175781,4118.9741210938,4076.9230957031,4082.3076171875,4077.8205566406,4061.0256347656,4105.8974609375,4092.3076171875,4095.0,33026,0.0,0.0,2.0,98.0
28.2734375,113,4121.9228515625,4085.1281738281,4120.7690429688,4123.4614257813,4085.6411132813,4087.0512695313,4120.2563476563,4076.5385742188,4083.7180175781,4088.205078125,4082.4357910156,4109.2309570313,4103.7177734375,4106.2822265625,33026,0.0,0.0,2.0,99.0
28.28125,113,4129.1025390625,4092.5642089844,4122.0512695313,4123.3334960938,4085.6411132813,4080.3845214844,4111.6665039063,4073.7180175781,4077.9487304688,4090.5129394531,4089.6154785156,4108.4614257813,4110.7690429688,4110.0,33026,0.0,0.0,2.0,99.0
28.2890625,113,4126.6665039063,4092.3076171875,4118.9741210938,4122.5639648438,4081.1538085938,4084.2307128906,4111.1538085938,4080.2563476563,4083.9743652344,4093.58984375,4098.9741210938,4113.0771484375,4118.4614257813,4114.1025390625,33026,0.0,0.0,2.0,99.0
28.296875,113,4123.4614257813,4091.1538085938,4121.6665039063,4115.384765625,4084.8718261719,4094.1025390625,4122.1796875,4092.8205566406,4103.0771484375,4103.0771484375,4118.9741210938,4128.7177734375,4130.384765625,4127.3076171875,33026,0.0,0.0,2.0,99.0
28.3046875,113,4125.5126953125,4093.3332519531,4121.5385742188,4109.1025390625,4095.6411132813,4094.4870605469,4124.1025390625,4099.2309570313,4112.3076171875,4112.0512695313,4140.7690429688,4140.6411132813,4145.5126953125,4139.615234375,33026,0.0,0.0,2.0,100.0
28.3125,113,4128.58984375,4087.3076171875,4113.8461914063,4108.0771484375,4095.0,4090.8974609375,4113.4614257813,4095.0,4107.4360351563,4116.1538085938,4156.1538085938,4141.6665039063,4154.615234375,4142.1796875,33026,0.0,0.0,2.0,100.0
28.3203125,113,4126.1538085938,4079.2307128906,4106.9228515625,4101.1538085938,4088.8461914063,4091.1538085938,4108.0771484375,4089.8718261719,4105.1284179688,4115.6411132813,4159.7436523438,4141.2822265625,4155.0,4146.5385742188,33026,0.0,0.0,2.0,100.0
28.328125,113,4123.205078125,4077.3076171875,4106.0258789063,4092.9487304688,4089.3588867188,4090.5129394531,4107.9487304688,4090.7692871094,4105.2563476563,4114.8715820313,4158.58984375,4141.41015625,4154.1025390625,4153.9741210938,33026,0.0,0.0,2.0,100.0
28.3359375,113,4125.384765625,4076.1538085938,4107.3076171875,4093.8461914063,4090.7692871094,4090.1281738281,4106.41015625,4092.4357910156,4102.5639648438,4116.1538085938,4161.794921875,4141.6665039063,4155.7690429688,4157.0512695313,33026,0.0,0.0,2.0,101.0
28.34375,113,4125.5126953125,4075.7692871094,4102.1796875,4094.8718261719,4087.0512695313,4091.2819824219,4107.6923828125,4091.794921875,4096.41015625,4112.4360351563,4157.1796875,4139.1025390625,4151.5385742188,4155.0,33026,0.0,0.0,2.0,101.0
28.3515625,113,4121.41015625,4071.1538085938,4093.205078125,4088.3332519531,4081.41015625,4090.2563476563,4109.2309570313,4090.2563476563,4092.0512695313,4106.1538085938,4143.205078125,4128.8461914063,4142.4360351563,4151.0258789063,33026,0.0,0.0,2.0,101.0
28.359375,113,4120.1284179688,4062.0512695313,4089.1025390625,4081.2819824219,4074.6154785156,4087.3076171875,4107.0512695313,4089.6154785156,4091.2819824219,4107.0512695313,4135.8974609375,4119.2309570313,4136.1538085938,4144.2309570313,33026,0.0,0.0,2.0,101.0
28.3671875,113,4121.9228515625,4064.6154785156,4091.6667480469,4081.6667480469,4067.1794433594,4087.9487304688,4106.41015625,4091.5385742188,4093.8461914063,4109.615234375,4136.0258789063,4120.6411132813,4132.6923828125,4141.0258789063,33026,0.0,0.0,2.0,102.0
28.375,113,4121.5385742188,4073.3332519531,4094.8718261719,4088.7180175781,4073.8461914063,4089.8718261719,4105.0,4093.7180175781,4101.1538085938,4106.2822265625,4135.6411132813,4125.7690429688,4129.1025390625,4147.8203125,33026,0.0,0.0,2.0,102.0
28.3828125,113,4120.0,4071.9230957031,4092.9487304688,4096.6665039063,4091.2819824219,4085.0,4100.1284179688,4093.9743652344,4102.6923828125,4106.6665039063,4137.4360351563,4129.2309570313,4125.2563476563,4151.2822265625,33026,0.0,0.0,2.0,102.0
28.390625,113,4119.615234375,4069.7436523438,4089.6154785156,4095.1281738281,4094.2307128906,4083.0769042969,4098.9741210938,4091.9230957031,4094.7436523438,4108.205078125,4137.5639648438,4136.2822265625,4122.8203125,4140.8974609375,33026,0.0,0.0,2.0,102.0
28.3984375,113,4119.8715820313,4074.6154785156,4094.7436523438,4094.1025390625,4090.1281738281,4090.2563476563,4102.0512695313,4089.8718261719,4094.3588867188,4108.58984375,4137.9487304688,4150.384765625,4126.5385742188,4137.0512695313,33026,0.0,0.0,2.0,103.0
28.40625,113,4121.41015625,4078.205078125,4100.0,4101.2822265625,4096.794921875,4093.7180175781,4104.615234375,4093.9743652344,4104.4873046875,4114.7436523438,4149.1025390625,4168.3334960938,4136.6665039063,4150.0,33026,0.0,0.0,2.0,103.0
28.4140625,113,4122.9487304688,4077.4357910156,4094.2307128906,4104.3588867188,4100.5126953125,4092.4357910156,4103.0771484375,4102.3076171875,4107.9487304688,4122.8203125,4158.58984375,4173.9741210938,4141.1538085938,4158.9741210938,33026,0.0,0.0,2.0,103.0
28.421875,113,4122.9487304688,4077.4357910156,4094.2307128906,4104.3588867188,4100.5126953125,4092.4357910156,4103.0771484375,4102.3076171875,4107.9487304688,4122.8203125,4158.58984375,4173.9741210938,4141.1538085938,4158.9741210938,33026,0.0,0.0,2.0,103.0
28.4296875,113,4123.4614257813,4077.9487304688,4093.3332519531,4099.4873046875,4098.58984375,4094.4870605469,4098.8461914063,4106.2822265625,4110.7690429688,4124.3588867188,4156.794921875,4161.5385742188,4139.1025390625,4156.2822265625,33026,0.0,0.0,2.0,104.0
28.4375,113,4123.4614257813,4079.4870605469,4098.9741210938,4098.8461914063,4096.41015625,4096.5385742188,4099.8715820313,4106.794921875,4118.8461914063,4124.7436523438,4153.4614257813,4154.615234375,4137.5639648438,4153.9741210938,33026,0.0,0.0,2.0,104.0
