AF3,F7,F3,F5,T7,P7,O1,O2,P8,T8,FC6,F4,F8,AF4,EventId
0.472594052,0.29456461,0.24770529,0.228770599,0.344053835,0.374730216,0.473643454,0.348934216,0.374102375,0.315946688,0.709254712,0.393549876,0.3752946,0.3765019,left
0.472385296,0.303306572,0.248208282,0.229282819,0.367567776,0.389848407,0.479875071,0.353336248,0.382479826,0.314044978,0.714257136,0.395075305,0.373644389,0.377391758,left
0.474686388,0.297034913,0.2491303,0.228770599,0.390810484,0.386339029,0.470527151,0.353568329,0.389899202,0.318663712,0.715757901,0.382653599,0.376944811,0.395638933,left
0.482427079,0.298745958,0.248836902,0.230364269,0.385945779,0.360421249,0.457802823,0.362372394,0.399473561,0.344742904,0.723761854,0.398126162,0.394861002,0.409212234,left
0.494351646,0.315469177,0.248417875,0.233209984,0.388108442,0.358531346,0.465333972,0.368860506,0.398276652,0.352892943,0.728664443,0.429941066,0.40429001,0.422785535,left
0.487447572,0.311478186,0.247579502,0.231417214,0.389729667,0.366630781,0.469747828,0.35936064,0.385352224,0.324639924,0.717058615,0.420571048,0.395803724,0.429684054,left
0.470292959,0.287723326,0.247286104,0.228599895,0.346486702,0.356371531,0.468449286,0.367469786,0.390857276,0.315675089,0.71045521,0.394203038,0.386373819,0.413662372,left
0.472594052,0.287532969,0.24833391,0.229567434,0.322972761,0.350972251,0.486107677,0.393882865,0.412159153,0.340668402,0.720460247,0.407713624,0.39038173,0.399421253,left
0.476987481,0.302356233,0.24628028,0.230108159,0.346486702,0.360151336,0.501688204,0.394114945,0.414791806,0.347459929,0.726563334,0.426236216,0.399339377,0.405873995,left
0.483054939,0.304066554,0.246741289,0.229709741,0.363513169,0.368790082,0.501168985,0.384846719,0.405457193,0.340396286,0.724762492,0.417737635,0.402639799,0.420115961,left
0.492050554,0.307297563,0.252231896,0.23144561,0.3727032,0.383909301,0.505323726,0.394810305,0.405217447,0.348003127,0.723461778,0.427979919,0.403818649,0.429461166,left
0.492468862,0.311288553,0.253279702,0.233010775,0.391621611,0.395518114,0.511036124,0.394114945,0.40402145,0.353980373,0.72456225,0.446066792,0.40429001,0.426791591,left
0.489749461,0.30482726,0.24992669,0.232840071,0.384053835,0.383099049,0.499091119,0.383688962,0.407132683,0.346373533,0.731465731,0.4364785,0.402404567,0.419448144,left
0.489539909,0.305587242,0.249297911,0.232327851,0.362703071,0.379049846,0.496754139,0.3971267,0.422211182,0.350720151,0.737868894,0.442361942,0.413012425,0.421450748,left
0.496652739,0.308247902,0.250471505,0.232356248,0.371892073,0.387959533,0.510516905,0.419601465,0.435615102,0.375441348,0.737769059,0.476791985,0.431399977,0.441477639,left
0.501882785,0.300076288,0.250764903,0.232327851,0.36945972,0.376349692,0.50610206,0.4107974,0.432742703,0.379516885,0.73706869,0.483329419,0.432814956,0.451045731,left
0.499372936,0.30349693,0.251477488,0.232100138,0.359189387,0.366901208,0.491300856,0.386237438,0.413594897,0.358054875,0.737969111,0.45914083,0.428335684,0.438362288,left
0.5,0.32060014,0.252231896,0.232384753,0.377027496,0.380939748,0.494936378,0.386700717,0.404978612,0.350720151,0.739269634,0.45020653,0.433757678,0.430573912,left
0.498117215,0.324781487,0.251309878,0.232242445,0.381351793,0.389848407,0.504544403,0.401297975,0.415510133,0.357783794,0.738769315,0.455218536,0.43682197,0.431908699,left
0.495397815,0.310718205,0.249507504,0.230762686,0.355135295,0.379319244,0.5014281,0.392493028,0.412159153,0.349904837,0.73266642,0.441707949,0.429514535,0.42790349,left
0.494979507,0.30121626,0.248208282,0.229453631,0.351351407,0.380399923,0.497792577,0.376969211,0.409526501,0.346373533,0.726463308,0.421659929,0.425035262,0.415887864,left
0.49225931,0.302546591,0.248962689,0.229055214,0.364595015,0.383099049,0.500389662,0.389712471,0.431067213,0.359413388,0.72896452,0.424057624,0.431636106,0.408099488,left
0.494351646,0.303686563,0.248795079,0.229282819,0.34864885,0.368250257,0.492080179,0.395968944,0.430588632,0.356153165,0.729364622,0.428851355,0.433757678,0.404539208,left
0.489539909,0.298935591,0.246447891,0.228742202,0.351621611,0.368790082,0.482991374,0.364226393,0.399233814,0.342026915,0.721060592,0.412072467,0.417020337,0.392745623,left
0.482427079,0.297795618,0.247202298,0.228685301,0.380540666,0.388228931,0.491820075,0.350556133,0.388942039,0.342026915,0.718859457,0.40749618,0.413955146,0.379172322,left
0.481590463,0.306727214,0.250890691,0.230136555,0.376486059,0.385259378,0.500648777,0.379054408,0.406654102,0.351535465,0.724262173,0.426671934,0.429278405,0.384735206,left
0.480334742,0.309387874,0.2491303,0.230221961,0.358648464,0.367980858,0.484549031,0.385542078,0.408568427,0.352621861,0.724762492,0.4364785,0.42055599,0.398531395,left
0.48138091,0.29988593,0.245986881,0.229055214,0.351891815,0.370950411,0.467410848,0.360750918,0.395165418,0.350176953,0.72316151,0.418827345,0.4073552,0.388072597,left
0.478243202,0.300265921,0.247286104,0.229169016,0.354865091,0.383099049,0.483770697,0.357507083,0.395643999,0.352349745,0.725762938,0.392241891,0.42126348,0.372496692,left
0.476778725,0.308627893,0.248920707,0.229738138,0.374324425,0.387689106,0.502466538,0.370018262,0.402824541,0.350176953,0.726463308,0.395292749,0.431164745,0.378727393,left
0.484309863,0.309958223,0.249088477,0.229880445,0.392702428,0.385528777,0.493637836,0.375579374,0.401866467,0.350176953,0.728064099,0.417301916,0.423385051,0.393190552,left
0.491004385,0.308247902,0.248878884,0.230335764,0.390810484,0.386878854,0.491820075,0.384152241,0.405217447,0.357783794,0.734467262,0.421006766,0.425977983,0.398976324,left
0.491004385,0.305207251,0.248753096,0.230079654,0.386486187,0.395248715,0.509218363,0.389481273,0.411680572,0.361858296,0.733266573,0.412725629,0.426214113,0.397863578,left
0.482427079,0.29988593,0.248920707,0.228856005,0.376756778,0.386609455,0.505323726,0.38461552,0.408329592,0.359684469,0.727463755,0.409893046,0.422677562,0.400978929,left
0.47866151,0.299315582,0.248669291,0.227746158,0.371080945,0.372300488,0.488184553,0.382530324,0.412637735,0.356425282,0.727763831,0.414905051,0.429985895,0.399199213,left
0.48138091,0.303876921,0.247747272,0.227433147,0.384053835,0.379049846,0.494936378,0.385078799,0.42292951,0.356425282,0.728464201,0.436260226,0.420084629,0.389853161,left
0.480962602,0.315089186,0.247914883,0.228116071,0.370811256,0.385528777,0.5014281,0.387396077,0.426520236,0.363216808,0.725962989,0.465242546,0.401225717,0.39029809,left
0.484518619,0.319460167,0.249591309,0.228400686,0.353513555,0.378779419,0.497273358,0.392029749,0.425323327,0.367020228,0.726763385,0.477010259,0.406411581,0.397641537,left
0.488284985,0.307297563,0.248417875,0.228030773,0.39216202,0.390929085,0.506362164,0.401297975,0.421732601,0.357511677,0.72686341,0.48550884,0.418670548,0.396750832,left
0.488493741,0.299125949,0.246196475,0.228258379,0.41432391,0.401727646,0.51726873,0.409406681,0.421493766,0.354251455,0.724262173,0.502506003,0.419613269,0.396083862,left
0.483263695,0.305396884,0.248920707,0.227262335,0.388378131,0.384988952,0.501168985,0.406394926,0.428195726,0.361586179,0.727163678,0.504031431,0.423148922,0.400978929,left
0.473849772,0.299505939,0.247747272,0.222794553,0.377567905,0.38175,0.484809135,0.394347026,0.419099948,0.356696363,0.726663359,0.484419129,0.420792119,0.38673781,left
0.473849772,0.285253023,0.242675692,0.218781982,0.375135552,0.386878854,0.483770697,0.376969211,0.393489928,0.342841194,0.717458717,0.467421967,0.403111159,0.363595569,left
0.479498126,0.293424637,0.245777288,0.218668179,0.366756649,0.370410586,0.473902569,0.364689671,0.385591059,0.342026915,0.716758347,0.474395119,0.396982574,0.369604229,left
0.480544294,0.29988593,0.249507504,0.219180399,0.368108185,0.363661228,0.471565589,0.370018262,0.394686837,0.351806547,0.722661382,0.484636574,0.4073552,0.38673781,left
0.47866151,0.28221201,0.245190491,0.217814443,0.354324168,0.372030062,0.481433717,0.384846719,0.411201079,0.353708257,0.722961459,0.470254551,0.411833575,0.379617251,left
0.475732557,0.275370364,0.242256666,0.217159915,0.350540794,0.364470452,0.477278976,0.389944552,0.423647837,0.349633755,0.721961012,0.45652652,0.4049975,0.370716128,left
0.474058528,0.279931341,0.243933092,0.217017662,0.357297443,0.352051901,0.467670952,0.372798818,0.414791806,0.352349745,0.719759878,0.449989086,0.400989588,0.374944225,left
0.464853361,0.260357105,0.242424276,0.215054079,0.337837594,0.354211716,0.468190171,0.349397495,0.387026803,0.347188847,0.711055554,0.431248221,0.395567594,0.362705711,left
0.456694363,0.248574491,0.240999266,0.213716574,0.333513298,0.360421249,0.470267047,0.357043804,0.377931937,0.338223494,0.708054024,0.411635919,0.38991037,0.355585152,left
0.469874651,0.272900062,0.2434301,0.215224783,0.358108056,0.362041239,0.471565589,0.386237438,0.398036905,0.344471823,0.711555873,0.39747217,0.391795812,0.375167113,left
0.477615341,0.286772987,0.243262489,0.217359124,0.359189387,0.358531346,0.476759757,0.390639912,0.408568427,0.356425282,0.714657428,0.394638756,0.399811635,0.38317753,left
0.469246791,0.278791368,0.241166877,0.218127508,0.355945908,0.357721609,0.465853191,0.370713622,0.401627632,0.352078663,0.719559826,0.410764482,0.402168438,0.367155848,left
0.47154868,0.280121698,0.24200509,0.21818441,0.377837594,0.372030062,0.461438345,0.369554983,0.399473561,0.348546325,0.718659405,0.424493343,0.398632785,0.362482823,left
0.480125986,0.28924329,0.245064703,0.218525872,0.391621611,0.389579008,0.486887,0.388322635,0.407132683,0.359413388,0.716158003,0.421224211,0.404054778,0.373609438,left
0.483263695,0.288673665,0.246028704,0.21869663,0.38567609,0.388499358,0.497014243,0.390407831,0.407371518,0.361042981,0.719559826,0.422313921,0.401225717,0.375834083,left
0.475732557,0.280311694,0.244100862,0.218412069,0.371621354,0.369870761,0.475461215,0.370481541,0.398036905,0.350176953,0.719659852,0.42383935,0.382838165,0.367155848,left
0.471129575,0.273280053,0.241963267,0.218326663,0.355135295,0.350161999,0.457543708,0.361445836,0.390617529,0.343928625,0.71345674,0.418827345,0.381895444,0.356697898,left
0.475732557,0.273090057,0.241041089,0.218070553,0.361351536,0.355291881,0.463775326,0.377896652,0.399233814,0.345558219,0.712356268,0.416212206,0.391795812,0.358922543,left
0.479079818,0.285062666,0.242466259,0.218070553,0.377567905,0.373919964,0.470267047,0.386005357,0.404738866,0.349361639,0.715457824,0.412508185,0.384723608,0.374054367,left
0.484100311,0.290953611,0.245232474,0.219095047,0.37594565,0.380939748,0.470267047,0.37187226,0.38439415,0.347459929,0.714757454,0.426236216,0.380480465,0.3765019,left
0.475523005,0.279361355,0.244016897,0.218582827,0.36324348,0.389579008,0.474681892,0.369787064,0.377692646,0.343928625,0.714757454,0.458487668,0.392739431,0.366933808,left
0.472385296,0.282022015,0.24280148,0.21770064,0.364864705,0.385259378,0.475461215,0.39087111,0.408089846,0.361315098,0.720260196,0.48550884,0.400282996,0.369158453,left
0.488284985,0.303306572,0.247118493,0.220119542,0.380540666,0.360961074,0.466891629,0.402455731,0.42292951,0.387666923,0.72896452,0.505774305,0.404054778,0.383845348,left
0.486820508,0.309198241,0.248920707,0.221940817,0.394324683,0.355291881,0.453388967,0.388090554,0.401627632,0.378701571,0.731165464,0.496186013,0.4073552,0.379839292,left
0.48138091,0.297415628,0.245525872,0.219578817,0.378648722,0.365820529,0.447416465,0.369554983,0.382958407,0.350720151,0.722261089,0.435824508,0.395096234,0.356697898,left
0.488493741,0.288483308,0.243933092,0.217899795,0.345945779,0.358261434,0.4453386,0.368165146,0.378889555,0.346101417,0.717258666,0.39747217,0.381424084,0.353582547,left
0.484309863,0.278791368,0.243178684,0.218241311,0.349189259,0.344762719,0.443780943,0.376969211,0.378410518,0.350448035,0.721961012,0.418609901,0.380716594,0.370271199,left
0.47364022,0.274990374,0.241711691,0.217302223,0.367837466,0.360421249,0.454167301,0.379054408,0.385112478,0.348818441,0.725962989,0.422967914,0.381187954,0.374054367,left
0.472175744,0.279171359,0.241921285,0.216932256,0.363513169,0.383099049,0.471306474,0.379749768,0.399952142,0.350176953,0.72526262,0.392460165,0.37340826,0.36315064,left
0.471129575,0.275370364,0.24217286,0.217871344,0.362703071,0.375540468,0.468969494,0.378359931,0.405935774,0.358054875,0.723061485,0.386794168,0.367043546,0.356252969,left
0.467991866,0.277461038,0.242382294,0.217785992,0.38243261,0.359071172,0.449493341,0.370018262,0.403303122,0.373539638,0.727463755,0.416866198,0.381895444,0.360925995,left
0.475941313,0.29589494,0.245316279,0.218582827,0.394324683,0.371490236,0.452869748,0.377896652,0.415030641,0.389024401,0.737368576,0.444105645,0.403818649,0.382287672,left
0.486610956,0.308247902,0.246699307,0.220887872,0.39216202,0.390118834,0.467930067,0.40291901,0.426520236,0.389839715,0.730665527,0.45020653,0.4049975,0.399866182,left
0.48514648,0.302546591,0.243346295,0.221485498,0.390000386,0.383099049,0.467410848,0.412650516,0.424126418,0.379244769,0.710055107,0.440619069,0.394861002,0.393190552,left
0.488703293,0.296654922,0.243472083,0.220973278,0.384594243,0.375270041,0.467670952,0.413809155,0.429391723,0.380331165,0.712556319,0.439529358,0.397925295,0.397418649,left
0.498745076,0.304636902,0.249214105,0.221684707,0.386216498,0.380939748,0.472344912,0.416589711,0.438966082,0.390655029,0.727263703,0.452604226,0.411362214,0.419003215,left
0.503975121,0.303876921,0.249423699,0.222026223,0.384053835,0.381209147,0.453388967,0.396895501,0.420057111,0.378701571,0.717458717,0.441490505,0.403583418,0.408099488,left
0.504602982,0.286013005,0.244268473,0.220375652,0.378108313,0.377970195,0.433393596,0.370250343,0.394207344,0.351535465,0.699649777,0.404662767,0.371758049,0.368713524,left
0.487447572,0.271569732,0.241711691,0.218355168,0.386216498,0.378510021,0.439626202,0.361445836,0.388223712,0.340668402,0.695447749,0.375680447,0.352427776,0.351135014,left
0.478870266,0.279741346,0.243388277,0.219550312,0.394324683,0.376889517,0.44066464,0.358897361,0.380086008,0.346101417,0.702751333,0.386794168,0.358085899,0.364486274,left
0.492050554,0.301596251,0.247202298,0.22268075,0.391350892,0.369870761,0.442223286,0.364226393,0.379607427,0.357511677,0.718159087,0.429722792,0.373644389,0.386960698,left
0.497280599,0.301025903,0.248082494,0.221883915,0.389189259,0.367170606,0.459361469,0.383688962,0.398755233,0.375170267,0.725962989,0.451296241,0.385431097,0.399199213,left
0.489749461,0.278031025,0.245819271,0.219521915,0.387297315,0.372569887,0.466112306,0.390407831,0.411919407,0.382232875,0.726363282,0.441272231,0.393682152,0.393635481,left
0.488493741,0.277651034,0.245861094,0.22057486,0.381621483,0.380399923,0.463256107,0.383688962,0.410722498,0.378429454,0.737468792,0.448027939,0.40429001,0.394748227,left
0.504811737,0.301976242,0.250094301,0.222481542,0.389729667,0.386609455,0.468969494,0.396663421,0.421732601,0.393915252,0.751475806,0.473087964,0.426920705,0.414107301,left
0.509414719,0.310908562,0.251938497,0.22293686,0.397837852,0.384719553,0.467151733,0.409175483,0.438726336,0.415105145,0.756177963,0.476791985,0.445073025,0.425233916,left
0.496234431,0.299695573,0.249591309,0.222026223,0.392432738,0.382289825,0.460399907,0.399211896,0.437530339,0.417821135,0.760280346,0.470472825,0.442480093,0.423676241,left
0.495188263,0.294184619,0.249591309,0.219977234,0.388108442,0.386339029,0.463775326,0.387627275,0.430110051,0.412931319,0.766983395,0.474830838,0.443186685,0.41766758,left
0.499791244,0.2985556,0.25198048,0.218412069,0.384053835,0.383909301,0.460660011,0.379517687,0.418861113,0.409127898,0.771085398,0.475266556,0.451202508,0.417000611,left
0.504184674,0.29589494,0.253866499,0.21920885,0.390000386,0.392818988,0.472084808,0.390407831,0.430349797,0.428959279,0.782991684,0.491828,0.469353931,0.446150665,left
0.507322382,0.285062666,0.254872323,0.218924289,0.412431966,0.418736768,0.504025184,0.431418168,0.479655513,0.470795868,0.803301645,0.525604881,0.504007463,0.484200994,left
0.504602982,0.274420387,0.252860516,0.215737057,0.418648207,0.434125385,0.517787949,0.456209328,0.501675718,0.483835722,0.811205764,0.522335749,0.519094593,0.492656341,left
0.500209552,0.262257783,0.247747272,0.21272053,0.383513427,0.413606886,0.50843904,0.431418168,0.46696992,0.452866197,0.802901543,0.482893701,0.492927347,0.469514947,left
0.493933338,0.24952483,0.243262489,0.210557738,0.360810613,0.388499358,0.4985719,0.411955156,0.44853953,0.444716158,0.800400331,0.46546082,0.472654353,0.45126862,left
0.489749461,0.251995495,0.241208859,0.209675551,0.381081074,0.394438464,0.498831015,0.430722808,0.476783114,0.475142486,0.813706976,0.470472825,0.500470912,0.46150453,left
0.49351503,0.258076797,0.23995138,0.20910643,0.380810355,0.403887975,0.496754139,0.442770708,0.48755347,0.489540853,0.825212778,0.465025102,0.518858463,0.480195786,left
0.495188263,0.247054166,0.239238875,0.208167342,0.36972941,0.390929085,0.47805731,0.429332971,0.475586205,0.483292525,0.822911618,0.449553368,0.498820701,0.474854943,left
0.489958217,0.236031896,0.237939573,0.20674443,0.381621483,0.374190391,0.459620584,0.411260679,0.463858686,0.473512892,0.815808085,0.438221373,0.486091272,0.456831504,left
0.478243202,0.227099938,0.23487996,0.205378474,0.364595015,0.369330935,0.465853191,0.410102041,0.449497604,0.457212815,0.811805918,0.435388789,0.48326221,0.453048336,left
0.472385296,0.217407637,0.231862249,0.205321572,0.334324425,0.359611511,0.465853191,0.411491877,0.442795644,0.444988275,0.807303813,0.44650251,0.466053509,0.450377914,left
0.483891555,0.223298944,0.231820266,0.206801331,0.367297057,0.363121403,0.459880688,0.408016844,0.454284327,0.451236603,0.805002652,0.456962239,0.464639427,0.457721362,left
0.492677618,0.236221892,0.233161551,0.209220233,0.401891429,0.389039183,0.487146115,0.425857055,0.4703209,0.460473037,0.806703278,0.451950234,0.479255196,0.477080435,left
0.49225931,0.236031896,0.234796154,0.209789408,0.379729538,0.394978289,0.507400602,0.444392626,0.466491339,0.453138313,0.802901543,0.449989086,0.470296652,0.476190577,left
0.489539909,0.232611254,0.237017475,0.208793365,0.381892201,0.388228931,0.498311796,0.433503364,0.459071051,0.450149173,0.797498636,0.467857685,0.456623604,0.469959876,left
0.488284985,0.238502199,0.236137359,0.208508804,0.406215726,0.383099049,0.488184553,0.419370267,0.46026796,0.454767907,0.799699961,0.478317414,0.458746073,0.477970293,left
0.491841002,0.240402877,0.232616657,0.208423452,0.382161891,0.373380139,0.477538091,0.414272434,0.44853953,0.451236603,0.793296798,0.456743964,0.457802454,0.479305928,left
0.488912049,0.234701566,0.232490949,0.208451903,0.366486959,0.370679984,0.464554649,0.408016844,0.437769173,0.44879066,0.786293101,0.43909364,0.457095862,0.471294663,left
0.485564788,0.231280924,0.234502756,0.2095902,0.403783373,0.387418679,0.468969494,0.421223383,0.452130256,0.453952593,0.797798903,0.441926223,0.464639427,0.472185368,left
0.482217527,0.232420897,0.233119569,0.209903211,0.423513941,0.395788541,0.476499653,0.436978398,0.472953553,0.456126419,0.802701492,0.419045619,0.465346019,0.479305928,left
0.481799219,0.243253533,0.231275452,0.208935672,0.401891429,0.385528777,0.467670952,0.424003939,0.468884245,0.451236603,0.790395103,0.386358449,0.458273815,0.474632902,left
0.483473247,0.250284812,0.234083569,0.21010242,0.395675189,0.382289825,0.463516211,0.410102041,0.457156726,0.452050883,0.785692947,0.397253896,0.454502032,0.457721362,left
0.476987481,0.240782868,0.233832153,0.210927705,0.406215726,0.385799204,0.463775326,0.415662271,0.462661778,0.453952593,0.789894784,0.417084472,0.458981304,0.456608615,left
0.478870266,0.236221892,0.230269548,0.209903211,0.387568034,0.389039183,0.469488713,0.422149941,0.46696992,0.442814448,0.788494426,0.415776487,0.457095862,0.47552276,left
0.482635835,0.239452538,0.230814363,0.210187826,0.371351664,0.382019399,0.471306474,0.418211628,0.445428296,0.421353473,0.782491365,0.419481338,0.437058099,0.480195786,left
0.475104697,0.235081557,0.231443063,0.211183815,0.378918411,0.359881424,0.451311102,0.406858205,0.417664205,0.408856817,0.775087565,0.421878203,0.422913691,0.469514947,left
0.480334742,0.238882552,0.231694558,0.213118947,0.381081074,0.358531346,0.445079485,0.408712204,0.435375356,0.428959279,0.776388089,0.415994761,0.43682197,0.474410014,left
0.49225931,0.256936463,0.234209357,0.215737057,0.391621611,0.38175,0.462217668,0.426552415,0.465054684,0.446345752,0.786693203,0.419263063,0.458273815,0.484423883,left
0.489121601,0.262827769,0.234125552,0.215765508,0.413243094,0.383909301,0.467930067,0.422845301,0.447103786,0.426786488,0.784492259,0.412943904,0.45143774,0.481308532,left
0.477824097,0.250665165,0.231862249,0.214456453,0.409189516,0.370950411,0.459620584,0.407321484,0.424126418,0.408312584,0.774387196,0.388755315,0.428570916,0.471294663,left
0.475104697,0.241733207,0.23156885,0.214541805,0.387837723,0.369600334,0.457024489,0.412882597,0.434896775,0.419179647,0.773586991,0.388319596,0.420320759,0.454161082,left
0.476359621,0.235651905,0.231484965,0.214314146,0.381351793,0.360421249,0.444819381,0.41774835,0.435615102,0.420266043,0.775387833,0.397253896,0.424799133,0.442812426,left
0.473221912,0.232040906,0.230940151,0.214001134,0.378108313,0.352861639,0.439885317,0.41774835,0.42795598,0.407226188,0.772986456,0.388102152,0.427392963,0.453938194,left
0.485356032,0.235651905,0.23425126,0.214854871,0.388108442,0.377970195,0.478576529,0.435125282,0.454044581,0.424884777,0.774687463,0.399433317,0.432578827,0.479972897,left
0.502928953,0.243633524,0.23647266,0.215423992,0.412431966,0.401727646,0.506881383,0.447636461,0.469363738,0.442814448,0.778789465,0.420352774,0.445308256,0.489763878,left
0.495188263,0.252185491,0.234376968,0.216733047,0.413243094,0.393358813,0.484809135,0.431881446,0.446864951,0.428959279,0.778989517,0.39747217,0.458981304,0.485981558,left
0.486192648,0.254465798,0.23425126,0.218298212,0.417026982,0.382019399,0.456764385,0.414735713,0.432742703,0.412659202,0.776188037,0.365874711,0.452380461,0.484645923,left
0.484518619,0.256366476,0.235592465,0.218355168,0.425405885,0.392008736,0.464554649,0.414504514,0.432503869,0.411572806,0.770285193,0.378078142,0.431871337,0.469070018,left
0.478243202,0.257506449,0.23504757,0.218383618,0.396216627,0.393088386,0.473902569,0.418674907,0.431067213,0.417821135,0.766583293,0.381782162,0.429749766,0.453048336,left
0.474686388,0.253705816,0.233161551,0.218497421,0.376486059,0.372840314,0.452869748,0.408480123,0.421015185,0.409127898,0.76528277,0.354543546,0.434700399,0.456608615,left
0.478451958,0.257696444,0.232239453,0.217985201,0.408649108,0.369330935,0.438846879,0.391797668,0.404260284,0.390111832,0.762681342,0.363259571,0.425035262,0.455940798,left
0.483891555,0.263017765,0.234418871,0.218241311,0.433243351,0.386609455,0.442482401,0.396432223,0.408568427,0.393915252,0.763381711,0.395292749,0.427864324,0.443925172,left
0.481590463,0.257316454,0.236263067,0.218668179,0.416756263,0.391468911,0.449753445,0.4107974,0.426759071,0.413746633,0.763281495,0.399215043,0.43611448,0.439475035,left
0.479498126,0.252185491,0.234838057,0.218383618,0.400540923,0.388499358,0.458062927,0.413113795,0.430110051,0.420266043,0.765983139,0.404009604,0.432578827,0.445704888,left
0.482635835,0.254465798,0.233832153,0.218127508,0.404324811,0.39470889,0.47104637,0.425625857,0.445428296,0.422983067,0.772386302,0.418827345,0.443186685,0.448820239,left
0.479498126,0.253705816,0.235173358,0.218412069,0.421080559,0.398758094,0.476499653,0.443929347,0.466012758,0.424069463,0.77058546,0.419045619,0.454266801,0.448598198,left
0.482635835,0.260357105,0.237394758,0.219123498,0.419999743,0.392818988,0.461438345,0.43049161,0.442555897,0.414289831,0.76318166,0.419045619,0.43635061,0.448820239,left
0.487866677,0.275180369,0.238191069,0.219664223,0.397837852,0.387689106,0.442482401,0.404077649,0.411440826,0.408856817,0.762781558,0.416647924,0.423148922,0.452826295,left
0.488493741,0.27689069,0.242047072,0.219379608,0.408378389,0.389039183,0.466632514,0.425625857,0.43800892,0.421896671,0.773886877,0.400523028,0.462045597,0.475077831,left
0.494142094,0.280501689,0.243346295,0.219180399,0.384594243,0.387149281,0.467410848,0.443002789,0.44853953,0.427329685,0.772486137,0.395511023,0.459217434,0.482866207,left
0.494142094,0.276320704,0.243639693,0.218639728,0.373784017,0.384719553,0.467151733,0.437210478,0.439444663,0.422710951,0.763981865,0.387229886,0.456859733,0.472630297,left
0.488912049,0.268909071,0.241292665,0.21895274,0.394865091,0.392008736,0.467670952,0.42330858,0.430588632,0.414017714,0.759379544,0.392241891,0.45379544,0.463061357,left
0.489958217,0.27822102,0.242298488,0.220432553,0.413783502,0.401187821,0.46870939,0.425625857,0.439923245,0.41700582,0.770184977,0.415559043,0.462517856,0.477970293,left
0.491213938,0.299125949,0.243849286,0.221827014,0.41135115,0.409017857,0.468190171,0.411723958,0.428434561,0.417821135,0.774286979,0.419045619,0.466053509,0.476857547,left
0.492677618,0.304256911,0.242885285,0.221770004,0.412702685,0.415496788,0.46637241,0.386932798,0.405696028,0.406410874,0.76388203,0.405970751,0.456388372,0.453048336,left
0.484309863,0.289433647,0.241837479,0.221286289,0.43054028,0.405507451,0.462477772,0.396432223,0.415988715,0.407769386,0.762181023,0.404445322,0.454030672,0.448820239,left
0.476569173,0.27955135,0.241083072,0.221827014,0.426486702,0.389848407,0.463256107,0.420760104,0.436812011,0.418907531,0.767383879,0.404009604,0.457095862,0.457276433,left
0.47426808,0.284112327,0.239616079,0.221770004,0.402702557,0.388228931,0.470007932,0.416820909,0.427477398,0.410758527,0.762081188,0.388319596,0.450258889,0.449043127,left
0.479707678,0.287343335,0.241460275,0.221200883,0.401081331,0.396868191,0.468449286,0.40430973,0.418861113,0.403151686,0.758679174,0.385922731,0.445780515,0.446595594,left
0.495397815,0.289813638,0.24548389,0.221912312,0.423243222,0.407397354,0.462477772,0.418674907,0.445906877,0.42624329,0.768184084,0.41381534,0.455209522,0.464841921,left
0.494561199,0.288483308,0.244645677,0.222453037,0.425946294,0.405777878,0.465073868,0.443698149,0.4703209,0.443086565,0.771785768,0.433427642,0.463931937,0.473297267,left
0.489539909,0.279361355,0.242927268,0.221371695,0.400540923,0.390929085,0.467151733,0.447868542,0.469363738,0.428416081,0.766183191,0.427761645,0.462517856,0.471517551,left
0.496025675,0.281642024,0.243220666,0.220489454,0.383784145,0.383639903,0.45884225,0.425625857,0.455959817,0.415105145,0.761580869,0.428633081,0.454738161,0.467067414,left
0.49790846,0.296654922,0.243723499,0.221400092,0.377567905,0.384988952,0.452090425,0.410565319,0.439923245,0.416734739,0.761180767,0.451950234,0.453559311,0.460168895,left
0.495606571,0.304446545,0.24485527,0.222538443,0.395945908,0.387959533,0.447935684,0.421223383,0.435375356,0.421081357,0.762681342,0.463717117,0.45073025,0.453938194,left
0.489958217,0.297795618,0.244729482,0.222481542,0.422702814,0.390658659,0.437289222,0.415662271,0.432503869,0.412931319,0.758579339,0.449770812,0.433521548,0.439252146,left
0.488284985,0.289813638,0.242047072,0.221798509,0.407567262,0.382289825,0.427940313,0.389249192,0.415030641,0.393099938,0.75207596,0.436260226,0.426214113,0.421673637,left
0.487029264,0.292094307,0.241627886,0.221627805,0.388378131,0.375270041,0.432355158,0.381139604,0.398036905,0.380603281,0.749875016,0.422967914,0.43682197,0.421005819,left
0.478243202,0.300456279,0.243346295,0.222026223,0.391621611,0.383369476,0.438067556,0.387163996,0.399712395,0.385493097,0.752476443,0.404881041,0.436586739,0.418113357,left
0.479288574,0.301596251,0.242885285,0.222168422,0.399999485,0.38175,0.43131672,0.38461552,0.398755233,0.385220981,0.75137559,0.393114157,0.424799133,0.402536604,left
0.489958217,0.293994262,0.24217286,0.221912312,0.404324811,0.38606963,0.448194799,0.395273584,0.395404253,0.377071977,0.749474913,0.387012442,0.428099555,0.407431671,left
0.493723786,0.292094307,0.242633869,0.221570904,0.409729924,0.415767215,0.492339294,0.425625857,0.413116316,0.39255674,0.752476443,0.38744816,0.446723236,0.432354475,left
0.492050554,0.28924329,0.242969091,0.221257784,0.410540022,0.430076182,0.502726642,0.444161428,0.441838481,0.414017714,0.753576916,0.399650761,0.458273815,0.44770834,left
0.489539909,0.287152978,0.241837479,0.220973278,0.41432391,0.413067061,0.477278976,0.447636461,0.459549632,0.420809241,0.752276011,0.399433317,0.447429828,0.44770834,left
0.488703293,0.29190395,0.241041089,0.221001674,0.418107799,0.394978289,0.462736887,0.441612952,0.45524149,0.416191541,0.749374697,0.36740014,0.426449344,0.433021445,left
0.486610956,0.29722527,0.242256666,0.221656202,0.415405757,0.392818988,0.452350529,0.418442827,0.434179359,0.40287957,0.747973958,0.346262824,0.422206201,0.413662372,left
0.488075432,0.305587242,0.245106686,0.222993762,0.418378517,0.394978289,0.437808441,0.399211896,0.419578529,0.395001648,0.751976125,0.363913563,0.432107467,0.41455223,left
0.493305478,0.30349693,0.245735465,0.223534378,0.422162406,0.400647996,0.449753445,0.40361437,0.412159153,0.389024401,0.752976381,0.376334439,0.427156834,0.428571308,left
0.488075432,0.290193629,0.242759498,0.222083124,0.413783502,0.408207605,0.467930067,0.410102041,0.403063376,0.382504991,0.750475169,0.368707294,0.417491697,0.425011028,left
0.489121601,0.29057362,0.242717675,0.222225323,0.40162174,0.414956963,0.467670952,0.408016844,0.410483663,0.387394807,0.758479123,0.371976426,0.43564312,0.418558286,left
0.497698907,0.302926581,0.246615501,0.225213454,0.40162174,0.413606886,0.468190171,0.415198992,0.43800892,0.411844923,0.775087565,0.387229886,0.463931937,0.436136796,left
0.499163384,0.30615759,0.248920707,0.226721718,0.418107799,0.40334815,0.461957564,0.422149941,0.445189461,0.428959279,0.777188675,0.397907888,0.471239373,0.452826295,left
0.502510645,0.303306572,0.247411891,0.225241851,0.421621997,0.398488695,0.444560266,0.406858205,0.418142786,0.41048641,0.760780284,0.384179028,0.45143774,0.434802009,left
0.495397815,0.304066554,0.243723499,0.223961301,0.41108146,0.396598793,0.439885317,0.382298243,0.397558324,0.383591387,0.746873485,0.346916401,0.417963058,0.398086466,left
0.48138091,0.3021666,0.242424276,0.224075103,0.411891558,0.392008736,0.441963182,0.376969211,0.409286754,0.384134585,0.750475169,0.33841782,0.414427405,0.384290277,left
0.480962602,0.300645912,0.243933092,0.224758136,0.41432391,0.395518114,0.441703078,0.395736863,0.432264122,0.411572806,0.762581126,0.373937574,0.449787529,0.406096884,left
0.494769954,0.3021666,0.243388277,0.22518495,0.405675317,0.411716984,0.457543708,0.416126432,0.440880407,0.424884777,0.766783344,0.402048457,0.466289638,0.434802009,left
0.502720197,0.30121626,0.24217286,0.224018202,0.393242836,0.423056398,0.475201111,0.415894351,0.433939612,0.405867676,0.758679174,0.394421312,0.43870831,0.426123774,left
0.492468862,0.3021666,0.241586063,0.222396135,0.387568034,0.418466341,0.471825693,0.409638762,0.428434561,0.378973687,0.742471215,0.383090147,0.407826561,0.398531395,left
0.490376525,0.301976242,0.240621983,0.223505982,0.413243094,0.419816418,0.467410848,0.413577074,0.42795598,0.365932798,0.730665527,0.370015279,0.39038173,0.394526187,left
0.498745076,0.30615759,0.242214683,0.225811081,0.441891944,0.426836203,0.469228609,0.403383172,0.42292951,0.358326992,0.731065629,0.348223556,0.377652301,0.395860974,left
0.501464476,0.319460167,0.24485527,0.226465608,0.440270719,0.427376028,0.465593087,0.383225683,0.406414356,0.349089523,0.735467899,0.345608831,0.376944811,0.389853161,left
0.499372936,0.317559488,0.245190491,0.226010289,0.418107799,0.416036614,0.462477772,0.388785913,0.388702293,0.353165059,0.73936985,0.358683284,0.38920288,0.392523582,left
0.494142094,0.3021666,0.242256666,0.224359718,0.399459077,0.413067061,0.464294545,0.417284188,0.405217447,0.381689677,0.749974851,0.369797005,0.411362214,0.406096884,left
0.495816123,0.297415628,0.24058008,0.222794553,0.397567133,0.423325796,0.470787255,0.444392626,0.45189051,0.413203435,0.767984032,0.371322434,0.432814956,0.425011028,left
0.499581692,0.300076288,0.242424276,0.223648289,0.40783798,0.417926516,0.468449286,0.450417017,0.476543367,0.425427975,0.775587884,0.365003274,0.439886263,0.438362288,left
0.498326768,0.313378865,0.243681676,0.22569717,0.423513941,0.406587102,0.447156361,0.422149941,0.455002655,0.423526265,0.768884453,0.379385297,0.438000821,0.436804613,left
0.501255721,0.325541469,0.242424276,0.226010289,0.420540151,0.407937179,0.430018178,0.386005357,0.430588632,0.416734739,0.761380818,0.403573886,0.431871337,0.425900886,left
0.493305478,0.311478186,0.240160973,0.22492884,0.409729924,0.416576439,0.43832766,0.392956307,0.43633343,0.406410874,0.753977018,0.389191033,0.414662636,0.412327585,left
0.476569173,0.296465288,0.240286681,0.224558927,0.426756392,0.427645426,0.445598704,0.399443977,0.425562162,0.381418595,0.739169418,0.353235561,0.388260159,0.388072597,left
0.469874651,0.304066554,0.241753674,0.224957344,0.421621997,0.42386665,0.42897974,0.361214197,0.380565045,0.348818441,0.723661829,0.350184703,0.363507892,0.362705711,left
0.47301236,0.311288553,0.24280148,0.225583367,0.381892201,0.405238053,0.418592392,0.348702576,0.360698911,0.338223494,0.717959036,0.370668442,0.354314116,0.361592965,left
0.488493741,0.313949213,0.245567695,0.226750115,0.386486187,0.405777878,0.439106983,0.381139604,0.378649808,0.340940519,0.718659405,0.401612739,0.35855726,0.382287672,left
0.502510645,0.325731826,0.249297911,0.228542993,0.434054478,0.426296377,0.46637241,0.401297975,0.394925672,0.350176953,0.725862964,0.441054787,0.369872607,0.398086466,left
0.506276214,0.332002762,0.251225913,0.229766642,0.436216112,0.424406475,0.466632514,0.408712204,0.414073478,0.371637928,0.737568627,0.455218536,0.388260159,0.404094279,left
0.506067458,0.332002762,0.250806886,0.229368225,0.406486445,0.411177158,0.44300162,0.420760104,0.436812011,0.390382913,0.74077059,0.451514515,0.397453935,0.402091675,left
0.500836616,0.332953101,0.2491303,0.228229982,0.412162277,0.413606886,0.432096043,0.40986996,0.428434561,0.384406701,0.733966943,0.448245383,0.387788798,0.399199213,left
0.498326768,0.329152468,0.246699307,0.227916862,0.425675575,0.419276593,0.44767558,0.38438344,0.405457193,0.375170267,0.72756378,0.426236216,0.377887532,0.397641537,left
0.493933338,0.326111817,0.244729482,0.228229982,0.398918669,0.416036614,0.45650527,0.382067045,0.405696028,0.375984546,0.728464201,0.409674772,0.379773873,0.398086466,left
0.486610956,0.327822138,0.243514065,0.227205433,0.380810355,0.413606886,0.456764385,0.395041503,0.426520236,0.374082836,0.729264787,0.418173353,0.376708682,0.395638933,left
0.485983096,0.325541469,0.243304472,0.226607807,0.418918926,0.421166495,0.455725947,0.392493028,0.423408091,0.361858296,0.727463755,0.409457327,0.370580097,0.386069993,left
0.492468862,0.327442147,0.245986881,0.22831528,0.451621354,0.424136048,0.441443963,0.385078799,0.401387886,0.356153165,0.733766892,0.409457327,0.379537743,0.386069993,left
0.506694522,0.341315073,0.250597293,0.229823544,0.431891815,0.418196943,0.439106983,0.409406681,0.417664205,0.384406701,0.745072643,0.452604226,0.399104146,0.398086466,left
0.51213412,0.345495696,0.251393683,0.229538929,0.425135166,0.4249463,0.470787255,0.447405263,0.46194345,0.410758527,0.745472746,0.451078797,0.413955146,0.402759492,left
0.498117215,0.324021505,0.24707667,0.227774555,0.437567648,0.433045735,0.490781637,0.455050689,0.4703209,0.393915252,0.736868638,0.381782162,0.40429001,0.390743019,left
0.489958217,0.304636902,0.244897093,0.225811081,0.397837852,0.415767215,0.464294545,0.430954889,0.441838481,0.371637928,0.733666676,0.362823853,0.379537743,0.381619855,left
0.494561199,0.304446545,0.245819271,0.225213454,0.376486059,0.403887975,0.437808441,0.401065895,0.42795598,0.378429454,0.736568371,0.39115218,0.37482324,0.390965907,left
0.501255721,0.306537581,0.245442067,0.225554862,0.406215726,0.41630704,0.437289222,0.389481273,0.432742703,0.386036295,0.737769059,0.380039289,0.391560581,0.409657163,left
0.50062786,0.30748792,0.246154492,0.22544106,0.403783373,0.421976747,0.440924744,0.399211896,0.431067213,0.380874362,0.738769315,0.373937574,0.399575506,0.419003215,left
0.502092337,0.310147856,0.24850168,0.225754071,0.393242836,0.415496788,0.437029118,0.409406681,0.429152888,0.384677783,0.744272057,0.403573886,0.396511213,0.41766758,left
0.509414719,0.305967232,0.249591309,0.226124092,0.409999614,0.419816418,0.437548337,0.414504514,0.43633343,0.39255674,0.751175539,0.410982756,0.405940221,0.423453353,left
0.504602982,0.3021666,0.247621485,0.225526466,0.406486445,0.415496788,0.433393596,0.413809155,0.442077316,0.392827821,0.752276011,0.392460165,0.412069704,0.433021445,left
0.497489355,0.303686563,0.24502288,0.225355762,0.383243737,0.393088386,0.420151038,0.395504782,0.431067213,0.390382913,0.74837406,0.386576723,0.392739431,0.425233916,left
0.492468862,0.29988593,0.243220666,0.225384158,0.387568034,0.396598793,0.422747133,0.381371685,0.414073478,0.377615175,0.737769059,0.377205876,0.367986267,0.402759492,left
0.485983096,0.29456461,0.242047072,0.224900443,0.40162174,0.413606886,0.424824998,0.387859356,0.404260284,0.351806547,0.725862964,0.363259571,0.364214484,0.392078653,left
0.495397815,0.301405894,0.24359787,0.225156553,0.409999614,0.399568345,0.406128169,0.383920161,0.390617529,0.341483717,0.725162594,0.376116995,0.370580097,0.403871391,left
0.503138505,0.306917572,0.245358102,0.225867982,0.415946165,0.383099049,0.399896552,0.364921311,0.376495737,0.350448035,0.72756378,0.388755315,0.365864695,0.418558286,left
0.498745076,0.303306572,0.244184667,0.225611872,0.395675189,0.389579008,0.410543014,0.365616671,0.377692646,0.347732045,0.726063015,0.373719299,0.359971341,0.42056089,left
0.497489355,0.30083627,0.241879462,0.224957344,0.381081074,0.397678443,0.409244472,0.377664571,0.393011347,0.345287137,0.730265043,0.360426987,0.364685845,0.417000611,left
0.496025675,0.30121626,0.242047072,0.224843433,0.391621611,0.400647996,0.407685826,0.392956307,0.414791806,0.366748112,0.737568627,0.376334439,0.380716594,0.420115961,left
0.493723786,0.30121626,0.244939075,0.225071147,0.39189233,0.399568345,0.41261989,0.411491877,0.433461031,0.387122691,0.742971534,0.398343607,0.396982574,0.439475035,left
0.490376525,0.299315582,0.245232474,0.224786532,0.374864834,0.388228931,0.406907492,0.406162846,0.436093683,0.389024401,0.749574748,0.395728467,0.403818649,0.451490661,left
0.489539909,0.297034913,0.242843463,0.224473521,0.371080945,0.384179728,0.404051293,0.393882865,0.428674307,0.384949899,0.751275755,0.385704457,0.401460948,0.436136796,left
0.491004385,0.298365243,0.242633869,0.224729631,0.385405371,0.38606963,0.401454209,0.400370535,0.427237652,0.384134585,0.747173753,0.38483302,0.398396656,0.421673637,left
0.48514648,0.29988593,0.243052896,0.224985741,0.39189233,0.384449126,0.388989986,0.39805414,0.420057111,0.386308411,0.748774543,0.387665604,0.400518227,0.42790349,left
0.482427079,0.300076288,0.242717675,0.224871938,0.390270076,0.385799204,0.388729881,0.379286489,0.404978612,0.387938005,0.752576279,0.386794168,0.402875928,0.437026654,left
0.488493741,0.302546591,0.242298488,0.224587323,0.38891854,0.387418679,0.400674886,0.381371685,0.405217447,0.385493097,0.749674964,0.388755315,0.398632785,0.442144609,left
0.494769954,0.304446545,0.242340471,0.224416619,0.387297315,0.389039183,0.391846185,0.389017994,0.407851011,0.382776073,0.748574492,0.402265901,0.394389642,0.446595594,left
0.489749461,0.301596251,0.243178684,0.22518495,0.387837723,0.390118834,0.372630631,0.368628425,0.391335857,0.381961793,0.755977911,0.418827345,0.405233629,0.44459299,left
0.478451958,0.30083627,0.243136861,0.225014246,0.387297315,0.386609455,0.374188288,0.35936064,0.385112478,0.383048189,0.763781814,0.42383935,0.424563902,0.442367497,left
0.484100311,0.301786609,0.243514065,0.223164466,0.383784145,0.384719553,0.378603133,0.37743249,0.401866467,0.395272729,0.767483714,0.428197363,0.429514535,0.44770834,left
0.49225931,0.301405894,0.246615501,0.223022158,0.38864885,0.384179728,0.37289024,0.388785913,0.407611264,0.410214294,0.772386302,0.441926223,0.428099555,0.459723966,left
0.49351503,0.30482726,0.250010496,0.224729631,0.389729667,0.388228931,0.378862742,0.38461552,0.405457193,0.413203435,0.773787042,0.446719954,0.433050188,0.475077831,left
0.508368551,0.311858177,0.250513487,0.225497961,0.385405371,0.395248715,0.397039364,0.392493028,0.419339695,0.413203435,0.76758393,0.442143668,0.434229038,0.479972897,left
0.516945857,0.313569222,0.249842885,0.224473521,0.389458948,0.395788541,0.410802129,0.410565319,0.42795598,0.409671096,0.761980972,0.447155673,0.429514535,0.475299872,left
0.50711283,0.306917572,0.248627308,0.222766048,0.392432738,0.387689106,0.399636448,0.406858205,0.413594897,0.393371019,0.758279072,0.449989086,0.424327772,0.467067414,left
0.494561199,0.300456279,0.245903076,0.221627805,0.381351793,0.383639903,0.379122352,0.387627275,0.401627632,0.379516885,0.750375334,0.433209368,0.411126983,0.447485452,left
0.491004385,0.300645912,0.245148668,0.221969213,0.374324425,0.388499358,0.378862742,0.379749768,0.40402145,0.381961793,0.749374697,0.41752019,0.400282996,0.433689262,left
0.493305478,0.30482726,0.246867077,0.222595344,0.383243737,0.383909301,0.384055921,0.38461552,0.408329592,0.390111832,0.756978548,0.423185358,0.406882942,0.43457912,left
0.482217527,0.297795618,0.245316279,0.221855411,0.387026596,0.370140159,0.372371021,0.382067045,0.406892937,0.390655029,0.756778497,0.432120487,0.408533153,0.428126378,left
0.474686388,0.285253023,0.24137647,0.221058576,0.370811256,0.362311151,0.362762997,0.368396344,0.398516398,0.383048189,0.748674327,0.421442485,0.397453935,0.41455223,left
0.482845387,0.287723326,0.244100862,0.221542399,0.365675832,0.367710432,0.37029365,0.363299393,0.395165418,0.381961793,0.748474276,0.415123325,0.397689166,0.416109905,left
0.488493741,0.299695573,0.247160475,0.222453037,0.372432481,0.376620118,0.376006049,0.374420736,0.399473561,0.386308411,0.751776074,0.42274964,0.399339377,0.425011028,left
0.491213938,0.299125949,0.243472083,0.221684707,0.361891944,0.378779419,0.369773937,0.381139604,0.397319489,0.379787967,0.749674964,0.419698782,0.392267173,0.422118566,left
0.492050554,0.293424637,0.242843463,0.221286289,0.36,0.381479574,0.37289024,0.384152241,0.395882834,0.376527744,0.753376864,0.423403632,0.404526139,0.426345815,left
0.495188263,0.307677553,0.249004672,0.223989697,0.385134652,0.384449126,0.393144727,0.404540928,0.410483663,0.396088044,0.763381711,0.445630244,0.427156834,0.438807217,left
0.493723786,0.317940203,0.251142107,0.225811081,0.39837826,0.392008736,0.401454209,0.41774835,0.429391723,0.415919425,0.766483077,0.451514515,0.423856412,0.435246938,left
0.489121601,0.306347223,0.246406068,0.224018202,0.385945779,0.391468911,0.385354463,0.401065895,0.433939612,0.417277937,0.764782451,0.449335094,0.417726929,0.423008424,left
0.487866677,0.297605261,0.244897093,0.222140025,0.377567905,0.375540468,0.37314985,0.382761522,0.422211182,0.411844923,0.763781814,0.445848518,0.425506623,0.417890469,left
0.482427079,0.300645912,0.246699307,0.222367631,0.384053835,0.369600334,0.373409459,0.384846719,0.405935774,0.408041502,0.761881137,0.425583053,0.415605357,0.41766758,left
0.487866677,0.307677553,0.247286104,0.223363674,0.380810355,0.377699769,0.37081287,0.388553833,0.408808173,0.408856817,0.760680448,0.423621906,0.40617635,0.418780327,left
0.501464476,0.321740836,0.248124476,0.225014246,0.378378003,0.385528777,0.37029365,0.389249192,0.427477398,0.416734739,0.76528277,0.443669096,0.423621181,0.425455957,left
0.498326768,0.327631781,0.248878884,0.226294796,0.397567133,0.384719553,0.37029365,0.39017575,0.423886672,0.417821135,0.767483714,0.435388789,0.433286317,0.427013632,left
0.48577434,0.305587242,0.248040671,0.224473521,0.397837852,0.377970195,0.364321148,0.383920161,0.396601162,0.392013542,0.758179237,0.411854193,0.423148922,0.418335398,left
0.475523005,0.291714316,0.244352278,0.221428597,0.362432352,0.371490236,0.366658128,0.383920161,0.393968509,0.373539638,0.75277633,0.416212206,0.420084629,0.413662372,left
0.479288574,0.300645912,0.24422649,0.222310729,0.368648593,0.37743037,0.3775642,0.394578224,0.410962245,0.394729531,0.7608805,0.437349937,0.430457256,0.422118566,left
0.486820508,0.30615759,0.248543503,0.224644225,0.40486522,0.389308582,0.384055921,0.393882865,0.411680572,0.409943213,0.765382605,0.448245383,0.438472181,0.427681449,left
0.480334742,0.302546591,0.247747272,0.223363674,0.375405242,0.384449126,0.391066862,0.38461552,0.403063376,0.397174439,0.761080551,0.447592221,0.438000821,0.421450748,left
0.48075305,0.300645912,0.245148668,0.222026223,0.347837723,0.378779419,0.401194105,0.394578224,0.402106213,0.386579493,0.759980079,0.452167678,0.430692487,0.419003215,left
0.493096722,0.310338214,0.24707667,0.223562883,0.399459077,0.395518114,0.405089731,0.409175483,0.411919407,0.391741425,0.761280602,0.46916484,0.426449344,0.423676241,left
0.498326768,0.3232608,0.249088477,0.224132005,0.432972632,0.418196943,0.41261989,0.412882597,0.428434561,0.404510198,0.759879863,0.477445977,0.432814956,0.42478814,left
0.49351503,0.323640791,0.247872901,0.222879851,0.409729924,0.423596223,0.431575835,0.426089136,0.43968441,0.420809241,0.761780921,0.468729122,0.440122392,0.427013632,left
0.492468862,0.312238892,0.246573678,0.222026223,0.408378389,0.418196943,0.438587764,0.434893201,0.437050846,0.419451763,0.763081444,0.456743964,0.43611448,0.430128983,left
0.505230046,0.307677553,0.2469089,0.222225323,0.423513941,0.418466341,0.428719636,0.419370267,0.430588632,0.39907615,0.759179493,0.446066792,0.425270494,0.42122786,left
0.509205167,0.307107205,0.244142685,0.221855411,0.402702557,0.414146711,0.421448591,0.409175483,0.429391723,0.400434662,0.757278816,0.436695944,0.425742752,0.41099195,left
0.499581692,0.30083627,0.242466259,0.22108708,0.374324425,0.398218268,0.411062233,0.414041235,0.429152888,0.417550053,0.761980972,0.444323089,0.43564312,0.415664976,left
0.496862291,0.30748792,0.247663307,0.22293686,0.390000386,0.38606963,0.396780249,0.411260679,0.426040743,0.411029608,0.764282132,0.465025102,0.434936528,0.425233916,left
0.498117215,0.322311184,0.250681098,0.226152488,0.417838109,0.384988952,0.395481707,0.398285338,0.410483663,0.388481203,0.757678918,0.460884533,0.424327772,0.416555682,left
0.49790846,0.32459113,0.247537679,0.226095587,0.405134909,0.382289825,0.400155667,0.386932798,0.396361415,0.379516885,0.749875016,0.43277365,0.421498711,0.398976324,left
0.494979507,0.319460167,0.246825094,0.224502026,0.392973147,0.384449126,0.401194105,0.396895501,0.412637735,0.387666923,0.749974851,0.423621906,0.423385051,0.400089071,left
0.494769954,0.319269809,0.248795079,0.225554862,0.408378389,0.393628212,0.40327197,0.414967793,0.426998817,0.390382913,0.75137559,0.426890208,0.414191275,0.405873995,left
0.503765569,0.325161478,0.248459698,0.226807016,0.403513684,0.392548561,0.406388273,0.406162846,0.409047008,0.383863503,0.74837406,0.412072467,0.402639799,0.403204421,left
0.500418308,0.327442147,0.247328086,0.225839477,0.38891854,0.383369476,0.39626103,0.388785913,0.392053273,0.377071977,0.747073537,0.395292749,0.4049975,0.395860974,left
0.488493741,0.316229158,0.245735465,0.224786532,0.391081203,0.379049846,0.381199722,0.38461552,0.394686837,0.376256663,0.748274225,0.387665604,0.405233629,0.384290277,left
0.485564788,0.309387874,0.243220666,0.224615828,0.38243261,0.382289825,0.386133786,0.389017994,0.407132683,0.382504991,0.747073537,0.382217881,0.398161424,0.381396967,left
0.489330357,0.325351835,0.244100862,0.225497961,0.390810484,0.389579008,0.404310408,0.40430973,0.425562162,0.393643136,0.750975488,0.393985594,0.413012425,0.399421253,left
0.496443983,0.328962111,0.246825094,0.226180993,0.40810767,0.395248715,0.410543014,0.418442827,0.435854849,0.393915252,0.751675858,0.405535033,0.425035262,0.401201817,left
0.489958217,0.309007884,0.245735465,0.225014246,0.400540923,0.405777878,0.411062233,0.413577074,0.423408091,0.380603281,0.737568627,0.381564718,0.398868016,0.369604229,left
0.48577434,0.302546591,0.244939075,0.224331213,0.407026853,0.412796634,0.41495687,0.405236288,0.417424458,0.378158373,0.72896452,0.374155018,0.381424084,0.364040498,left
0.491422693,0.308057544,0.245861094,0.225298752,0.416486573,0.401458248,0.413139109,0.406162846,0.425562162,0.384134585,0.737969111,0.411418475,0.396746445,0.384735206,left
0.488703293,0.305016893,0.243681676,0.224302817,0.387026596,0.390118834,0.411841556,0.412419318,0.429152888,0.381961793,0.74767369,0.43386336,0.40476137,0.381842743,left
0.482217527,0.302926581,0.241711691,0.221827014,0.382973018,0.398488695,0.413139109,0.408016844,0.430349797,0.382232875,0.748674327,0.424493343,0.405233629,0.368046554,left
0.475941313,0.305587242,0.24280148,0.222453037,0.408649108,0.401727646,0.404570512,0.387163996,0.426040743,0.381146479,0.746773269,0.407060462,0.416784208,0.364708315,left
0.482427079,0.311098195,0.245148668,0.225099543,0.398648979,0.391198484,0.401714313,0.389481273,0.427237652,0.388210121,0.753876802,0.394421312,0.427864324,0.374944225,left
0.49225931,0.313758856,0.24502288,0.225327257,0.391621611,0.390118834,0.407685826,0.415198992,0.434179359,0.400434662,0.763281495,0.393331602,0.431399977,0.393858369,left
0.486610956,0.305776875,0.243262489,0.223079059,0.383784145,0.384719553,0.399896552,0.417516269,0.431545795,0.39445845,0.75877939,0.395946741,0.420792119,0.400534,left
0.483054939,0.296085297,0.244184667,0.221713103,0.36324348,0.376080293,0.389249101,0.409175483,0.425323327,0.383863503,0.751075704,0.400958746,0.4049975,0.391187948,left
0.485983096,0.298745958,0.245777288,0.222253828,0.387837723,0.393628212,0.402492647,0.417284188,0.423886672,0.387394807,0.75507749,0.420352774,0.402404567,0.391187948,left
0.4864022,0.302356233,0.242508082,0.222367631,0.42702711,0.418736768,0.427161979,0.420528023,0.420535692,0.385493097,0.753276648,0.418609901,0.404526139,0.39697372,left
0.489121601,0.301786609,0.240915461,0.222111521,0.417026982,0.418736768,0.4336537,0.417979548,0.418381621,0.37489815,0.743871955,0.389191033,0.395096234,0.390965907,left
0.489121601,0.301786609,0.240915461,0.222111521,0.417026982,0.418736768,0.4336537,0.417979548,0.418381621,0.37489815,0.743871955,0.389191033,0.395096234,0.390965907,left
0.494561199,0.310718205,0.245861094,0.224132005,0.409189516,0.413877313,0.430537397,0.431649366,0.440162991,0.391741425,0.750775437,0.400304754,0.394624873,0.394748227,left
0.493096722,0.323451157,0.247663307,0.225924883,0.43054028,0.424675874,0.431835939,0.446478705,0.465054684,0.418093251,0.764282132,0.433209368,0.414898765,0.406986742,left
0.487657124,0.325541469,0.246028704,0.225213454,0.422972504,0.425486125,0.422227914,0.437442559,0.462900612,0.418364333,0.76388203,0.429287074,0.428807045,0.402759492,left
0.488703293,0.313949213,0.246489873,0.225014246,0.408378389,0.410637333,0.41028291,0.422149941,0.457874142,0.412931319,0.760280346,0.416647924,0.428570916,0.393635481,left
0.49225931,0.304066554,0.247663307,0.225839477,0.417026982,0.410097508,0.41495687,0.424003939,0.466251592,0.422439869,0.764182297,0.424275069,0.426449344,0.396528791,left
0.494142094,0.309007884,0.247956706,0.225270356,0.420270462,0.416576439,0.416774631,0.419370267,0.45859247,0.414833029,0.76318166,0.421224211,0.420084629,0.394526187,left
0.497071047,0.309578232,0.247998688,0.224388115,0.40162174,0.409827081,0.401194105,0.396895501,0.424844746,0.384949899,0.7534767,0.398779325,0.402404567,0.375389154,left
0.491422693,0.301405894,0.247789095,0.225042642,0.397837852,0.40766778,0.398337906,0.386932798,0.403063376,0.379244769,0.750075067,0.390499018,0.393210792,0.36626599,left
0.483054939,0.302926581,0.245316279,0.224473521,0.404054092,0.412527235,0.401714313,0.39087111,0.403781703,0.376256663,0.749374697,0.383961584,0.397689166,0.372273803,left
0.48577434,0.305967232,0.24359787,0.222766048,0.376756778,0.398218268,0.391066862,0.382530324,0.40234596,0.361315098,0.742971534,0.365003274,0.394861002,0.370271199,left
0.484518619,0.3021666,0.244813287,0.223221367,0.364595015,0.379860098,0.390288528,0.37812785,0.399233814,0.36647703,0.745172478,0.368925569,0.394624873,0.374499296,left
0.490794833,0.311478186,0.247998688,0.225355762,0.40162174,0.390118834,0.39859801,0.397822059,0.414313225,0.390382913,0.75947976,0.400740472,0.411126983,0.400978929,left
0.503556813,0.32459113,0.249423699,0.226323301,0.427567519,0.410906732,0.402492647,0.41635763,0.437050846,0.408856817,0.766583293,0.420788492,0.427392963,0.422563495,left
0.502301093,0.316229158,0.248250105,0.225583367,0.418378517,0.416846865,0.41729385,0.417979548,0.444709968,0.420538159,0.764782451,0.425364779,0.429042276,0.426345815,left
0.498535524,0.303686563,0.24833391,0.224957344,0.415946165,0.414686536,0.430797501,0.414735713,0.443752806,0.411572806,0.765482821,0.42383935,0.424799133,0.418780327,left
0.494769954,0.30349693,0.247411891,0.224957344,0.411621869,0.406317703,0.414697755,0.406394926,0.435136521,0.390382913,0.761280602,0.404009604,0.417491697,0.403871391,left
0.494351646,0.307677553,0.246657484,0.225241851,0.402162148,0.391738309,0.389249101,0.383225683,0.411440826,0.381146479,0.750375334,0.376770157,0.400754356,0.393635481,left
0.494351646,0.309767865,0.247914883,0.225327257,0.399729796,0.384988952,0.377044981,0.361445836,0.394686837,0.367563426,0.746473383,0.365438992,0.380245233,0.398308507,left
0.486820508,0.309387874,0.247831078,0.225099543,0.396757035,0.395788541,0.377044981,0.366543229,0.397079743,0.353165059,0.746773269,0.369579561,0.3729369,0.400756888,left
0.476150865,0.304066554,0.246238297,0.224473521,0.404324811,0.413337487,0.392106289,0.375347294,0.395882834,0.353436141,0.739970004,0.364567556,0.369872607,0.380952038,left
0.471757436,0.300076288,0.244519889,0.223904399,0.425405885,0.428455678,0.411062233,0.374652817,0.396122581,0.353165059,0.734467262,0.357376129,0.366808314,0.370939016,left
0.48075305,0.301025903,0.244352278,0.224046707,0.422432095,0.418736768,0.403011866,0.376969211,0.403781703,0.350720151,0.740870425,0.370232723,0.378595022,0.388963303,left
0.483682003,0.297415628,0.246238297,0.224245916,0.387837723,0.393088386,0.385614567,0.384846719,0.40402145,0.3653896,0.74907443,0.391588728,0.392267173,0.400978929,left
0.480544294,0.297415628,0.247286104,0.224416619,0.372161762,0.387689106,0.378603133,0.39156647,0.403781703,0.382504991,0.750275118,0.396382459,0.387788798,0.397418649,left
0.483891555,0.309198241,0.246825094,0.225611872,0.396216627,0.389308582,0.37522722,0.39156647,0.409526501,0.381146479,0.749274481,0.388537871,0.378595022,0.394081258,left
0.480125986,0.312048535,0.246406068,0.226437103,0.423243222,0.393628212,0.380940113,0.393188387,0.415510133,0.377071977,0.747573855,0.408149343,0.376237322,0.391410836,left
0.476569173,0.3021666,0.247411891,0.226124092,0.417297701,0.404157374,0.385873682,0.388553833,0.402584794,0.36729131,0.740170055,0.448463657,0.372701668,0.388740414,left
0.479498126,0.298365243,0.246447891,0.225583367,0.401081331,0.398218268,0.368475889,0.371176901,0.379368136,0.347732045,0.733666676,0.483111975,0.365393335,0.396305903,left
0.480334742,0.299695573,0.24405888,0.224018202,0.399459077,0.377970195,0.34977906,0.371408981,0.38942062,0.355337851,0.741270527,0.498583708,0.3729369,0.406319772,left
0.482845387,0.293424637,0.244436083,0.222339234,0.386216498,0.373919964,0.352116535,0.391334389,0.416227549,0.384949899,0.751675858,0.472433972,0.393210792,0.407431671,left
0.476569173,0.283732336,0.245525872,0.221912312,0.37297289,0.370679984,0.350817992,0.385542078,0.410722498,0.386308411,0.74837406,0.425364779,0.399575506,0.399644142,left
0.471757436,0.28658263,0.245232474,0.222481542,0.386216498,0.361771326,0.342248901,0.364689671,0.398516398,0.370279416,0.742071113,0.399650761,0.384017016,0.396305903,left
0.481590463,0.297605261,0.244771464,0.222566839,0.378918411,0.360691161,0.346922861,0.367006508,0.40234596,0.363760006,0.742071113,0.398126162,0.372230308,0.404539208,left
0.481590463,0.29988593,0.244813287,0.221855411,0.348378131,0.361230987,0.350817992,0.36607995,0.387266549,0.358326992,0.740970641,0.390716462,0.371522818,0.402536604,left
0.47866151,0.298175609,0.245986881,0.222026223,0.363513169,0.376889517,0.349259841,0.344532183,0.356630059,0.342026915,0.736268104,0.382000437,0.359499981,0.39341344,left
0.483054939,0.303306572,0.245693483,0.222310729,0.387026596,0.383909301,0.344066662,0.330630284,0.341311358,0.322195016,0.730465094,0.371976426,0.338283817,0.394303298,left
0.48075305,0.306727214,0.244394101,0.222225323,0.378648722,0.366630781,0.335237466,0.32692317,0.336285344,0.310513674,0.72316151,0.36216986,0.318010374,0.385847952,left
0.472175744,0.304066554,0.243681676,0.221741608,0.383513427,0.362041239,0.333160095,0.323910975,0.329822674,0.305895457,0.719159533,0.359991269,0.306458897,0.371161057,left
0.466109082,0.302546591,0.24359787,0.222196927,0.391621611,0.370140159,0.338353769,0.338276152,0.342747558,0.316218287,0.721260643,0.359555551,0.318717414,0.379617251,left
0.475104697,0.298935591,0.24485527,0.22333517,0.381621483,0.369600334,0.3451051,0.362604475,0.376017156,0.341754798,0.728364176,0.37742415,0.344648531,0.399199213,left
0.479498126,0.287343335,0.245148668,0.222737652,0.378918411,0.363390802,0.347961299,0.363994312,0.384155316,0.355882084,0.735167631,0.396164185,0.350306205,0.397641537,left
0.475732557,0.270619392,0.243933092,0.221513894,0.366486959,0.357721609,0.344585881,0.360055558,0.371709014,0.345830335,0.736668206,0.396382459,0.336397925,0.395638933,left
0.479288574,0.267578741,0.246070687,0.221115477,0.343513427,0.362850976,0.346663251,0.377664571,0.38606964,0.346916731,0.737168525,0.401394464,0.349363484,0.415887864,left
0.480125986,0.272139718,0.24770529,0.221286289,0.356216112,0.38175,0.361464455,0.379981848,0.394925672,0.355337851,0.737769059,0.398779325,0.369165117,0.430351871,left
0.480334742,0.272139718,0.246573678,0.222140025,0.380810355,0.391468911,0.372630631,0.36538459,0.371230432,0.345558219,0.736468155,0.388973589,0.358792491,0.429239125,left
0.482217527,0.280691685,0.247034688,0.222794553,0.385405371,0.382019399,0.374188288,0.370713622,0.370990686,0.342841194,0.735767785,0.388537871,0.347241463,0.428126378,left
0.478451958,0.294944601,0.246950882,0.222709147,0.389458948,0.372840314,0.374708001,0.37882321,0.387984877,0.351263349,0.735967836,0.383307591,0.350777565,0.42478814,left
0.481799219,0.312808516,0.246196475,0.223989697,0.386756906,0.366901208,0.359646694,0.371408981,0.385112478,0.348546325,0.735767785,0.377205876,0.354785477,0.426123774,left
0.48577434,0.326301451,0.247160475,0.225099543,0.384053835,0.363121403,0.339911921,0.37164018,0.391574692,0.348546325,0.73866948,0.388973589,0.353842756,0.433689262,left
0.47866151,0.316039525,0.244561871,0.222111521,0.385405371,0.370140159,0.34977906,0.372335539,0.396361415,0.351263349,0.738769315,0.383961584,0.346298742,0.425455957,left
0.46715525,0.297415628,0.240705868,0.219578817,0.378648722,0.381479574,0.365878805,0.359823919,0.378649808,0.33930989,0.736568371,0.362606409,0.335690436,0.414330189,left
0.461087792,0.298175609,0.240663965,0.221172487,0.370000129,0.378510021,0.358608256,0.355190247,0.370033523,0.336593901,0.738169162,0.364131838,0.339462218,0.421005819,left
0.465062914,0.307677553,0.242466259,0.222822949,0.371621354,0.357181269,0.34043114,0.355885165,0.371230432,0.346644615,0.733867108,0.375244728,0.343234,0.42478814,left
0.474058528,0.318129837,0.246573678,0.223790597,0.383243737,0.360961074,0.343287339,0.361677476,0.377453355,0.342026915,0.72686341,0.397907888,0.338283817,0.432576516,left
0.483891555,0.33390344,0.2526091,0.225981785,0.380269947,0.383369476,0.367436957,0.382993603,0.395882834,0.331431968,0.726463308,0.429505348,0.339462218,0.455718757,left
0.481799219,0.338274421,0.253824517,0.227888466,0.370000129,0.380939748,0.374708001,0.387163996,0.395882834,0.324912041,0.71855938,0.43277365,0.331447292,0.460391783,left
0.503975121,0.282781997,0.24359787,0.225611872,0.389729667,0.373650565,0.532848267,0.349861215,0.378889555,0.343656509,0.738569264,0.368925569,0.396275084,0.344459384,right
0.486610956,0.281451667,0.244310296,0.227603851,0.377837594,0.364201054,0.512074562,0.347080659,0.372666176,0.344199706,0.737368576,0.366310429,0.387788798,0.334223474,right
0.489539909,0.286202639,0.245525872,0.228400686,0.374324425,0.369330935,0.519345606,0.359129,0.400430723,0.351535465,0.738169162,0.380692452,0.380009104,0.327992773,right
0.505648354,0.300645912,0.249591309,0.23067728,0.36972941,0.370410586,0.524538785,0.368860506,0.405217447,0.339582007,0.726663359,0.397689614,0.376944811,0.336448119,right
0.51213412,0.309767865,0.254537102,0.234632842,0.353783759,0.361501413,0.514671646,0.360982557,0.389660367,0.321923417,0.715457824,0.394203038,0.37411575,0.34201185,right
0.502720197,0.311478186,0.256842307,0.235856599,0.356216112,0.353401979,0.496494035,0.337581234,0.378171227,0.308883563,0.709955082,0.380475008,0.356670919,0.324209605,right
0.486820508,0.309578232,0.254662889,0.235344379,0.377837594,0.349082349,0.472344912,0.3074606,0.352321461,0.286606756,0.691745849,0.363913563,0.322724877,0.291944624,right
0.487238816,0.302736224,0.250890691,0.23488906,0.391621611,0.350701824,0.47104637,0.295644339,0.334131273,0.264602066,0.669534829,0.341904396,0.289250196,0.2694702,right
0.489121601,0.299695573,0.249591309,0.233437698,0.371892073,0.350972251,0.484029812,0.308387599,0.337721543,0.255365632,0.669234562,0.334277251,0.286185454,0.272808015,right
0.486192648,0.300456279,0.249842885,0.231815631,0.342702814,0.346922534,0.486107677,0.319972221,0.339157287,0.253463922,0.677038465,0.342122255,0.308344788,0.287939415,right
0.492677618,0.297415628,0.249381876,0.23170172,0.357297443,0.356911357,0.496494035,0.32692317,0.353039788,0.266503776,0.678939523,0.340596826,0.317067203,0.28816188,right
0.493723786,0.297415628,0.248669291,0.233380796,0.383513427,0.368520684,0.506881383,0.328776727,0.367161125,0.286878873,0.685442711,0.333623674,0.318953095,0.283934206,right
0.490376525,0.307107205,0.249591309,0.23540128,0.37297289,0.356641444,0.497014243,0.315570188,0.349928099,0.284433447,0.690145058,0.337545968,0.329561401,0.298620254,right
0.502928953,0.32193047,0.250597293,0.235543479,0.366756649,0.348811922,0.495455597,0.305838683,0.335567016,0.276555525,0.689945007,0.340161108,0.338283817,0.315976723,right
0.508995615,0.327062156,0.2513517,0.234348335,0.38567609,0.356371531,0.497533462,0.310936075,0.348970936,0.287965268,0.696648247,0.326214803,0.340169708,0.311971514,right
0.498745076,0.321550479,0.253950305,0.234661346,0.387297315,0.356911357,0.490262418,0.313252911,0.35375766,0.291225491,0.701950938,0.318587659,0.34299832,0.30507342,right
0.497071047,0.324211139,0.255836324,0.235799698,0.379729538,0.353941804,0.497792577,0.316728386,0.350645971,0.287965268,0.701250568,0.326432662,0.34158379,0.312638908,right
0.502092337,0.328202129,0.254872323,0.235941897,0.37297289,0.355831706,0.497792577,0.327618089,0.36045962,0.300461925,0.704552365,0.333623674,0.341112429,0.317534398,right
0.501464476,0.324021505,0.254537102,0.23483205,0.348107927,0.349622174,0.47805731,0.330398645,0.374341666,0.311056872,0.70905447,0.336020539,0.355728198,0.31664454,right
0.502301093,0.32060014,0.256004094,0.232697764,0.338648722,0.346112282,0.46870939,0.322984417,0.374341666,0.302635234,0.707253628,0.340161108,0.367986267,0.321762495,right
0.507322382,0.318509828,0.254704712,0.232697764,0.354053964,0.350701824,0.466891629,0.315570188,0.360698911,0.290681776,0.704452149,0.339071397,0.365158103,0.326657986,right
0.510669643,0.322691175,0.253782694,0.235543479,0.361081331,0.355561794,0.460399907,0.321362499,0.361656073,0.303450031,0.709955082,0.340161108,0.368458525,0.33600319,right
0.512552428,0.323071166,0.254579084,0.235884995,0.355405499,0.356911357,0.463775326,0.337349594,0.378410518,0.321651818,0.714757454,0.344955254,0.376944811,0.343346637,right
0.507322382,0.307677553,0.253279702,0.233153083,0.354594372,0.346652107,0.460660011,0.340129709,0.376495737,0.314588693,0.709854866,0.331226808,0.371286689,0.329995377,right
0.50502129,0.297605261,0.253447313,0.232868468,0.357027239,0.329373587,0.445598704,0.340129709,0.364767763,0.308611964,0.707553705,0.324035382,0.368929886,0.326213057,right
0.520502671,0.30482726,0.255543085,0.233921413,0.348378131,0.330993577,0.452609644,0.353799968,0.386548222,0.320564905,0.71345674,0.337982102,0.372230308,0.341121145,right
0.521548042,0.307297563,0.254956288,0.232498555,0.347837723,0.353132066,0.478836633,0.361677476,0.398755233,0.317576799,0.713156663,0.336238813,0.35784977,0.33244291,right
0.504184674,0.299125949,0.253866499,0.231587918,0.351891815,0.360421249,0.482472155,0.357043804,0.374580957,0.303178432,0.706253182,0.317934081,0.347948953,0.311526585,right
0.501255721,0.297415628,0.254327508,0.232185544,0.332162277,0.345302544,0.465073868,0.354726526,0.374820247,0.309969959,0.703351677,0.321856376,0.349599164,0.309078628,right
0.502301093,0.300456279,0.253153914,0.230876489,0.324594501,0.344492292,0.466112306,0.354958166,0.398276652,0.315946688,0.701350784,0.350402977,0.345827381,0.304183138,right
0.495397815,0.296465288,0.251058302,0.22857139,0.349729667,0.358531346,0.475980434,0.34592202,0.385591059,0.299375012,0.698549305,0.366310429,0.34370581,0.294392581,right
0.498326768,0.292664655,0.24992669,0.228429082,0.359459592,0.359881424,0.469747828,0.333410399,0.35208217,0.281445341,0.698949407,0.372412145,0.34370581,0.302625463,right
0.505857906,0.28924329,0.249507504,0.228799103,0.351621611,0.352051901,0.460399907,0.331556842,0.354954569,0.27981523,0.701650861,0.372193871,0.339934027,0.315309329,right
0.502928953,0.280311694,0.249968513,0.227973764,0.342162406,0.351781989,0.465853191,0.338507792,0.368836615,0.288236867,0.701850912,0.355196708,0.340169708,0.312861372,right
0.503765569,0.27955135,0.249297911,0.227717654,0.33297289,0.353671891,0.475461215,0.342446545,0.371709014,0.29149709,0.701050517,0.345390972,0.347005783,0.318647145,right
0.512552428,0.288673665,0.249256088,0.228713697,0.338108313,0.351512076,0.463775326,0.336885874,0.371709014,0.289052182,0.706253182,0.359337277,0.352663906,0.339341429,right
0.500836616,0.285442657,0.250848709,0.2288275,0.346756906,0.350972251,0.436770003,0.321594139,0.358065803,0.286878873,0.707553705,0.366092985,0.346770103,0.337338824,right
0.487657124,0.276700695,0.248166299,0.226863917,0.339459334,0.336933196,0.416774631,0.311630993,0.340593486,0.281988539,0.694047009,0.350184703,0.328618231,0.312416443,right
0.490794833,0.274800378,0.243933092,0.225298752,0.328378389,0.321274152,0.413658328,0.318813582,0.339157287,0.275197013,0.686943477,0.349095822,0.323432367,0.30329328,right
0.48577434,0.268529081,0.245274296,0.225355762,0.330810741,0.336663284,0.427940313,0.330630284,0.355911731,0.28742207,0.701750886,0.363913563,0.343234,0.320872213,right
0.489330357,0.269099067,0.248920707,0.22544106,0.340270462,0.343682554,0.430537397,0.329935366,0.35854484,0.309426761,0.718459164,0.369579561,0.364214484,0.340454175,right
0.501046168,0.280121698,0.249339893,0.225412663,0.340270462,0.329643499,0.413139109,0.324837974,0.347774028,0.314317094,0.724062122,0.368271576,0.377180043,0.346906917,right
0.497071047,0.279741346,0.24833391,0.225241851,0.330810741,0.337742934,0.412100671,0.336654235,0.359023421,0.320837021,0.731365515,0.376116995,0.391324451,0.354027476,right
0.491841002,0.278031025,0.249214105,0.223648289,0.338648722,0.358531346,0.434433023,0.35936064,0.394686837,0.340940519,0.74697332,0.402701619,0.413248554,0.376946829,right
0.495188263,0.281261671,0.249172283,0.222253828,0.361351536,0.359341084,0.43832766,0.370945702,0.411919407,0.359956586,0.763981865,0.422967914,0.441065113,0.398308507,right
0.500209552,0.272329713,0.246657484,0.222026223,0.36,0.351781989,0.416774631,0.363299393,0.402824541,0.368649822,0.775987986,0.424710787,0.457802454,0.402759492,right
0.496234431,0.260357105,0.244394101,0.220489454,0.34702711,0.352321814,0.405869054,0.354031608,0.398516398,0.367563426,0.778789465,0.424057624,0.458509944,0.41032498,right
0.491422693,0.257506449,0.244100862,0.218668179,0.348107927,0.350972251,0.40560895,0.355653526,0.398755233,0.365932798,0.777889044,0.424275069,0.456859733,0.423230464,right
0.494979507,0.255796128,0.244519889,0.218867388,0.351081203,0.350161999,0.402492647,0.35866528,0.393728763,0.368649822,0.780390256,0.424710787,0.459924026,0.428571308,right
0.495188263,0.255226142,0.242843463,0.219095047,0.343243222,0.352591727,0.405089731,0.357507083,0.382240079,0.3607719,0.776788572,0.420352774,0.452145229,0.425011028,right
0.488493741,0.248384496,0.239909477,0.217643685,0.33135115,0.350431912,0.408206034,0.354726526,0.374102375,0.347459929,0.765882923,0.402919893,0.435407889,0.418113357,right
0.4864022,0.234891561,0.238568273,0.216078519,0.317027239,0.344222379,0.403791189,0.353568329,0.372666176,0.349361639,0.76018013,0.386576723,0.423856412,0.406319772,right
0.489330357,0.238692556,0.239406566,0.216163926,0.301351278,0.345572456,0.402492647,0.357043804,0.377453355,0.354794653,0.760280346,0.388973589,0.417491697,0.400756888,right
0.488703293,0.251615142,0.240454372,0.217729091,0.315405499,0.349622174,0.399636448,0.360982557,0.391096111,0.347732045,0.759980079,0.397689614,0.410890854,0.412549625,right
0.486192648,0.24952483,0.239825672,0.21949341,0.35216202,0.339362924,0.389769309,0.361445836,0.393968509,0.348546325,0.761380818,0.403573886,0.403818649,0.418558286,right
0.485564788,0.246294184,0.238735963,0.219151948,0.35837826,0.335313207,0.387431339,0.357738722,0.379128845,0.351806547,0.761480653,0.415559043,0.399339377,0.400534,right
0.485983096,0.253515821,0.240412469,0.218924289,0.349729667,0.350431912,0.393663946,0.354031608,0.378410518,0.352621861,0.761780921,0.439529358,0.40617635,0.393858369,right
0.488493741,0.258836779,0.242130878,0.220517959,0.363783888,0.357721609,0.398857125,0.361445836,0.397319489,0.365661716,0.770485244,0.470037107,0.424799133,0.416332793,right
0.491004385,0.257696444,0.240244779,0.221200883,0.371621354,0.355021454,0.395741811,0.376505932,0.403781703,0.382776073,0.777889044,0.479624569,0.433050188,0.431908699,right
0.491004385,0.257696444,0.240244779,0.221200883,0.371621354,0.355021454,0.395741811,0.376505932,0.403781703,0.382776073,0.777889044,0.479624569,0.433050188,0.431908699,right
0.491841002,0.258456788,0.23995138,0.220119542,0.367567776,0.359341084,0.387172224,0.383688962,0.409047008,0.386036295,0.776488305,0.458487668,0.429278405,0.42723652,right
0.491841002,0.260737096,0.241795497,0.219977234,0.362972761,0.363661228,0.389249101,0.38461552,0.424126418,0.386851609,0.773886877,0.446719954,0.426449344,0.423230464,right
0.489958217,0.256936463,0.240705868,0.220631762,0.358108056,0.369060509,0.403011866,0.386237438,0.421493766,0.389839715,0.76898467,0.458923386,0.417020337,0.424343211,right
0.488703293,0.253895812,0.238735963,0.220091037,0.367297057,0.373380139,0.405869054,0.385774159,0.410243917,0.377886256,0.762081188,0.451296241,0.402639799,0.421895677,right
0.491213938,0.258646784,0.239657982,0.219778025,0.379459849,0.374190391,0.405089731,0.389249192,0.410722498,0.36729131,0.761180767,0.424057624,0.395332363,0.417890469,right
0.495606571,0.26453809,0.23995138,0.21974952,0.372432481,0.372569887,0.415736193,0.399443977,0.412876569,0.36837874,0.760380181,0.41752019,0.396982574,0.423453353,right
0.487866677,0.262067426,0.238652078,0.218753531,0.358918669,0.364740879,0.415476089,0.395273584,0.405935774,0.360499783,0.754477337,0.414905051,0.392974662,0.425678845,right
0.478033649,0.259026775,0.238484467,0.218127508,0.35675652,0.357181269,0.398337906,0.37812785,0.397079743,0.349904837,0.751675858,0.393549876,0.381659315,0.407877447,right
0.48138091,0.261117448,0.239029362,0.21846897,0.368108185,0.361230987,0.386392901,0.365847869,0.38942062,0.350991233,0.752376227,0.38374331,0.3729369,0.396750832,right
0.483263695,0.260927453,0.239657982,0.218497421,0.370811256,0.368250257,0.391326966,0.360287198,0.382958407,0.350991233,0.749274481,0.391588728,0.367514906,0.400756888,right
0.478033649,0.260737096,0.239238875,0.21821286,0.347567519,0.355831706,0.395221603,0.364689671,0.388463458,0.347459929,0.745973064,0.387665604,0.364450614,0.395860974,right
0.482427079,0.269099067,0.238861671,0.220119542,0.348107927,0.343682554,0.393144727,0.380676326,0.40402145,0.351806547,0.749774799,0.386140175,0.373173029,0.400534,right
0.494769954,0.278601373,0.240999266,0.222310729,0.382973018,0.363390802,0.404829627,0.386700717,0.401866467,0.352621861,0.754277285,0.393331602,0.381659315,0.423676241,right
0.49225931,0.278031025,0.242466259,0.221827014,0.379459849,0.380399923,0.420670257,0.373030899,0.384872732,0.349361639,0.755477593,0.382871873,0.377652301,0.4307968,right
0.482845387,0.272139718,0.240915461,0.220887872,0.352432224,0.369870761,0.411581452,0.36607995,0.379368136,0.352349745,0.752376227,0.365220718,0.369872607,0.413217443,right
0.4864022,0.268719076,0.240160973,0.221513894,0.353783759,0.364740879,0.400415771,0.366774427,0.385830806,0.344742904,0.742871318,0.363042127,0.353606627,0.398531395,right
0.482427079,0.26719875,0.241544081,0.221883915,0.357837852,0.383639903,0.410023795,0.367469786,0.394207344,0.33170305,0.738268997,0.369361287,0.340876749,0.397195761,right
0.478243202,0.263968104,0.240957284,0.220375652,0.354865091,0.385259378,0.412100671,0.374189538,0.397798071,0.33279048,0.737168525,0.364567556,0.338283817,0.395860974,right
0.485356032,0.259597123,0.241083072,0.218895838,0.355135295,0.369600334,0.401454209,0.378359931,0.398516398,0.342570113,0.734467262,0.366528703,0.337576327,0.396528791,right
0.4864022,0.264918081,0.243849286,0.219038146,0.350810999,0.371490236,0.400415771,0.378591129,0.402824541,0.349633755,0.743571688,0.39115218,0.348655994,0.412995402,right
0.486192648,0.277271043,0.244394101,0.220204839,0.357027239,0.388499358,0.412879994,0.38531088,0.410722498,0.355609967,0.761780921,0.410982756,0.375058471,0.431686658,right
0.480125986,0.272710066,0.240119071,0.219351211,0.367567776,0.385799204,0.418073173,0.392725108,0.411440826,0.357783794,0.766383242,0.409893046,0.38802403,0.418558286,right
0.472803604,0.255416137,0.236011571,0.216704596,0.356216112,0.367980858,0.407685826,0.379981848,0.401627632,0.352078663,0.756078127,0.388537871,0.3729369,0.391855765,right
0.472803604,0.250665165,0.236053474,0.216704596,0.346756906,0.37311074,0.402233532,0.365616671,0.398755233,0.349904837,0.755577809,0.370886716,0.370107838,0.390075201,right
0.466736942,0.254275802,0.233832153,0.217586783,0.353243351,0.393358813,0.407685826,0.374884015,0.410005082,0.353708257,0.762081188,0.366528703,0.384488376,0.392078653,right
0.460669484,0.253325463,0.229431255,0.216903805,0.347837723,0.390118834,0.406907492,0.378591129,0.413594897,0.350720151,0.755477593,0.353235561,0.379301614,0.370494087,right
0.459205008,0.254846151,0.228886361,0.216590794,0.345945779,0.378779419,0.401714313,0.368396344,0.400670469,0.343113311,0.746072899,0.346262824,0.363271763,0.357365715,right
0.465481222,0.251235151,0.222641346,0.219408113,0.357027239,0.369060509,0.392884623,0.371176901,0.413594897,0.335235388,0.757979186,0.30812793,0.367043546,0.338673612,right
0.4615061,0.258456788,0.220629539,0.219436509,0.370269818,0.369870761,0.376265658,0.375116096,0.428913142,0.346101417,0.759179493,0.299629349,0.364921974,0.333110728,right
0.470084203,0.281642024,0.223102436,0.222054619,0.395405499,0.380129496,0.373669069,0.386468636,0.439923245,0.3607719,0.771685933,0.326868381,0.37340826,0.347129805,right
0.471339127,0.281451667,0.222809037,0.223591388,0.386486187,0.369330935,0.366138415,0.37882321,0.430110051,0.360499783,0.776488305,0.336892391,0.375058471,0.345126353,right
0.468410175,0.276320704,0.220587637,0.223961301,0.392973147,0.377699769,0.366917738,0.372335539,0.425801908,0.355609967,0.773886877,0.327740232,0.371051457,0.340454175,right
0.472594052,0.282971992,0.219749424,0.224132005,0.413513813,0.401187821,0.389769309,0.383225683,0.433699866,0.355609967,0.774187144,0.328829528,0.37340826,0.344904313,right
0.471966988,0.284302322,0.219162627,0.223505982,0.406757164,0.391738309,0.392106289,0.387859356,0.430110051,0.354251455,0.768884453,0.330137098,0.368458525,0.339786358,right
0.457322223,0.278601373,0.215809535,0.222794553,0.386756906,0.379049846,0.382498264,0.386005357,0.426998817,0.350448035,0.760280346,0.315318942,0.347713273,0.325990168,right
0.458368392,0.279171359,0.213211011,0.221855411,0.366486959,0.375270041,0.388470766,0.391797668,0.436572265,0.350448035,0.761280602,0.299193631,0.339934027,0.323097706,right
0.463180129,0.275180369,0.212833727,0.221229388,0.359459592,0.356101619,0.378603133,0.386700717,0.438487501,0.354251455,0.761881137,0.292656197,0.341819919,0.320649749,right
0.4587867,0.269099067,0.212875709,0.221912312,0.37918913,0.348811922,0.362243778,0.368396344,0.419339695,0.341483717,0.752176176,0.282414327,0.317067203,0.302848351,right
0.459623316,0.276320704,0.214719826,0.222453037,0.395405499,0.356911357,0.374967611,0.365616671,0.406892937,0.323010331,0.748474276,0.283285764,0.298443971,0.298175325,right
0.457531775,0.282592001,0.215055127,0.221428597,0.386756906,0.352591727,0.391326966,0.367933065,0.411919407,0.320293306,0.751575641,0.295271336,0.305516176,0.313751654,right
0.451464317,0.277461038,0.212917612,0.219550312,0.386756906,0.350701824,0.390288528,0.362836114,0.407851011,0.316490403,0.748574492,0.293091915,0.301508713,0.315754259,right
0.448744917,0.274420387,0.212540328,0.218753531,0.399729796,0.362041239,0.388989986,0.366543229,0.402584794,0.31350178,0.747073537,0.282850046,0.290900406,0.311081233,right
0.457531775,0.280311694,0.213588214,0.21974952,0.400540923,0.352321814,0.378862742,0.363531033,0.398516398,0.314044978,0.747073537,0.275876893,0.294436509,0.313974119,right
0.462761821,0.281261671,0.21241462,0.21949341,0.394053964,0.334773381,0.366658128,0.336190956,0.372905467,0.298288616,0.737368576,0.266070742,0.284299563,0.304628491,right
0.451882625,0.275750717,0.211366814,0.217245321,0.390000386,0.343952467,0.37314985,0.328313448,0.366443253,0.291225491,0.735167631,0.265199306,0.273691256,0.299288071,right
0.457113467,0.283352345,0.214845614,0.218099003,0.392432738,0.356371531,0.384316025,0.365847869,0.414791806,0.330616654,0.754277285,0.313357794,0.300801223,0.328882631,right
0.474058528,0.301976242,0.218030935,0.221257784,0.393242836,0.352861639,0.386392901,0.401529174,0.452369091,0.364846402,0.768784237,0.38374331,0.328618231,0.355140223,right
0.475104697,0.306727214,0.217025032,0.220717168,0.399999485,0.353941804,0.39392405,0.398517419,0.436812011,0.354794653,0.765082718,0.402701619,0.319660136,0.350022268,right
0.472175744,0.301405894,0.21652212,0.217871344,0.403513684,0.358801259,0.404570512,0.386005357,0.418861113,0.343113311,0.760780284,0.380039289,0.301980074,0.346906917,right
0.472385296,0.307107205,0.218156723,0.218127508,0.378378003,0.356101619,0.406128169,0.399211896,0.42963147,0.349633755,0.762281239,0.366746147,0.308580468,0.365153244,right
0.475314249,0.312238892,0.218533927,0.219066596,0.37918913,0.362850976,0.406128169,0.41635763,0.443992552,0.355066769,0.762681342,0.35846584,0.316831523,0.372718732,right
0.471757436,0.30482726,0.217192722,0.216989157,0.412162277,0.367980858,0.400155667,0.410102041,0.438966082,0.353165059,0.761980972,0.339071397,0.303630285,0.353582547,right
0.467991866,0.300456279,0.216941226,0.215367091,0.416486573,0.353671891,0.386653005,0.402224533,0.429152888,0.350991233,0.76388203,0.331662527,0.298915332,0.34913241,right
0.475104697,0.303876921,0.218198626,0.215936266,0.406757164,0.352321814,0.388729881,0.414967793,0.437290592,0.352892943,0.764882286,0.341686537,0.3123527,0.367823666,right
0.474476836,0.307297563,0.218617732,0.215993168,0.412431966,0.360961074,0.386653005,0.415198992,0.442077316,0.355066769,0.762181023,0.334495525,0.310702489,0.364263386,right
0.466736942,0.306537581,0.218408139,0.215708607,0.401351021,0.348811922,0.367177347,0.388785913,0.418142786,0.348546325,0.760780284,0.308781508,0.292550617,0.339341429,right
0.460669484,0.312238892,0.218240528,0.215623201,0.387026596,0.346652107,0.379641571,0.386932798,0.407132683,0.341754798,0.758679174,0.292220478,0.284771372,0.334445515,right
0.458577944,0.318129837,0.218282431,0.215281739,0.392432738,0.363390802,0.41028291,0.411723958,0.426040743,0.348818441,0.752876546,0.291566486,0.285714093,0.345349242,right
0.465481222,0.316799507,0.219162627,0.215139431,0.389458948,0.362041239,0.405869054,0.413113795,0.423169256,0.346101417,0.747874122,0.293309774,0.282885032,0.343791566,right
0.46652739,0.311288553,0.219288335,0.214684112,0.384864962,0.361501413,0.394443269,0.404540928,0.403781703,0.331975166,0.750475169,0.288733902,0.282413671,0.33956347,right
0.461087792,0.30615759,0.219833229,0.213631167,0.386486187,0.38175,0.406647388,0.415431072,0.405217447,0.333876876,0.753876802,0.278274174,0.28076346,0.344904313,right
0.455021131,0.308817526,0.221216336,0.213602717,0.39837826,0.395518114,0.41495687,0.413577074,0.408089846,0.346101417,0.750775437,0.262148448,0.276520317,0.347351846,right
0.453766206,0.32193047,0.221719328,0.214712563,0.412162277,0.378510021,0.394443269,0.399211896,0.408808173,0.348275243,0.753876802,0.265852883,0.279820739,0.347351846,right
0.460879036,0.329722817,0.222515638,0.215310189,0.399729796,0.360421249,0.372630631,0.405699567,0.42125402,0.349904837,0.763281495,0.288733902,0.288307025,0.35580804,right
0.458368392,0.315849167,0.222347948,0.214456453,0.387837723,0.365820529,0.376785372,0.414735713,0.423886672,0.349361639,0.760079914,0.281106758,0.287128624,0.366488879,right
0.453766206,0.305967232,0.222473736,0.213745024,0.392702428,0.364740879,0.377044981,0.399907256,0.40402145,0.333061562,0.750575385,0.264763588,0.273455576,0.372718732,right
0.451255562,0.307107205,0.222934745,0.213090497,0.38891854,0.360151336,0.365878805,0.381603766,0.383915569,0.30752505,0.745072643,0.296142773,0.256718235,0.365153244,right
0.447489992,0.30482726,0.222892842,0.212094453,0.380810355,0.367980858,0.369514327,0.381603766,0.377453355,0.299647128,0.739769953,0.341468678,0.247288779,0.350467197,right
0.448535364,0.305967232,0.223605347,0.21169609,0.381351793,0.363121403,0.367436957,0.381603766,0.380804335,0.306981853,0.740370106,0.313139935,0.245638568,0.35224776,right
0.442677857,0.303876921,0.219581733,0.210643145,0.365135424,0.349622174,0.360945236,0.375579374,0.382479826,0.311871669,0.747573855,0.243190138,0.256953915,0.366488879,right
0.441632087,0.296654922,0.214929419,0.209163331,0.340270462,0.346112282,0.359646694,0.387396077,0.396601162,0.327899629,0.751275755,0.24035714,0.281942311,0.374276408,right
0.444351487,0.299315582,0.219078741,0.209533298,0.354053964,0.353132066,0.359127475,0.401992453,0.420057111,0.344199706,0.750375334,0.252996289,0.278641889,0.372718732,right
0.437029503,0.299695573,0.222347948,0.21013087,0.39216202,0.373380139,0.37548683,0.396432223,0.414313225,0.32980134,0.743571688,0.201786943,0.244931527,0.360703106,right
0.436611195,0.284112327,0.215767632,0.207768924,0.377027496,0.377970195,0.383796806,0.388553833,0.392531854,0.308340365,0.734767529,0.172586349,0.243988357,0.342233891,right
0.441422933,0.275940713,0.214384525,0.205293122,0.344864962,0.352861639,0.358348646,0.392029749,0.402106213,0.321651818,0.743171585,0.210285524,0.274398746,0.346906917,right
0.443305717,0.276130708,0.22238993,0.20648832,0.378108313,0.352591727,0.354193905,0.394114945,0.405457193,0.324368325,0.749574748,0.208541821,0.26638382,0.364708315,right
0.441841241,0.280311694,0.225449544,0.208992573,0.382973018,0.369870761,0.372371021,0.383688962,0.376974774,0.28959538,0.734367046,0.187840223,0.232201649,0.371828874,right
0.447071684,0.296274931,0.227712847,0.210216276,0.337837594,0.352591727,0.355232343,0.375116096,0.362613692,0.278728834,0.729164571,0.235127275,0.237152282,0.378282464,right
0.464016745,0.308057544,0.23852637,0.212179859,0.351351407,0.341522739,0.341469578,0.371176901,0.374580957,0.292040288,0.740170055,0.266070742,0.266147691,0.392968511,right
0.469665099,0.312048535,0.248208282,0.214940222,0.38567609,0.354481629,0.354193905,0.368628425,0.375538575,0.293670399,0.739569901,0.242536146,0.26449748,0.423008424,right
0.473431464,0.326871799,0.25118409,0.216391585,0.362162663,0.352861639,0.346922861,0.375347294,0.370990686,0.29530051,0.736268104,0.265852883,0.256011194,0.445259959,right
0.493096722,0.3365641,0.258434928,0.217302223,0.335675446,0.347462359,0.323812175,0.37882321,0.376017156,0.308611964,0.750975488,0.331226808,0.286421134,0.444148061,right
0.511715812,0.32858212,0.270212532,0.218838937,0.34702711,0.347462359,0.316281522,0.370713622,0.367161125,0.31540349,0.764382349,0.366528703,0.324846449,0.457276433,right
0.515690933,0.329532459,0.272098551,0.218525872,0.357567648,0.350161999,0.327187593,0.370481541,0.35375766,0.312143268,0.76318166,0.383961584,0.32743983,0.493547046,right
0.503765569,0.3365641,0.267027131,0.216761498,0.351891815,0.352861639,0.338613379,0.389249192,0.373384504,0.318663712,0.762781558,0.401612739,0.323432367,0.511125556,right
0.492677618,0.338084064,0.269919133,0.216733047,0.350810999,0.356371531,0.346403642,0.408248042,0.407851011,0.33469219,0.768584186,0.40749618,0.339697898,0.511125556,right
0.490167769,0.330672432,0.273439756,0.216391585,0.354865091,0.363661228,0.357828933,0.414504514,0.408329592,0.336321784,0.768884453,0.395511023,0.339462218,0.514463795,right
0.484518619,0.323071166,0.266398511,0.214428002,0.333784017,0.362581578,0.356790495,0.40291901,0.384633897,0.3173052,0.757979186,0.374373292,0.319424455,0.505117743,right
0.485564788,0.338274421,0.263925535,0.216078519,0.336756778,0.355291881,0.340950359,0.389944552,0.381282917,0.313230181,0.751976125,0.370015279,0.317067203,0.497107326,right
0.483682003,0.354428016,0.266566122,0.217928299,0.383784145,0.370410586,0.3451051,0.383920161,0.366921834,0.310785273,0.749474913,0.359119832,0.305516176,0.490431696,right
0.474058528,0.349297053,0.262374737,0.21633463,0.370269818,0.384179728,0.354972734,0.370713622,0.334849144,0.278457235,0.737568627,0.313575654,0.279585059,0.46884713,right
0.472175744,0.347586732,0.261871905,0.217899795,0.337837594,0.361230987,0.337055227,0.368628425,0.337003216,0.262700356,0.729264787,0.291566486,0.292786298,0.465954667,right
0.47426808,0.360318961,0.267446317,0.221570904,0.374324425,0.350972251,0.325629442,0.37882321,0.357826512,0.283347051,0.73636832,0.314011787,0.319424455,0.478193181,right
0.478033649,0.355758346,0.265015324,0.219635718,0.392432738,0.380129496,0.346663251,0.377201292,0.356630059,0.286878873,0.738169162,0.294835203,0.29608672,0.455940798,right
0.471129575,0.343975733,0.257722503,0.216676146,0.351621611,0.393358813,0.355491953,0.372335539,0.355911731,0.274653815,0.727863857,0.24144685,0.277227358,0.42122786,right
0.458158839,0.344735715,0.25814153,0.218070553,0.346756906,0.378779419,0.339651817,0.377201292,0.378649808,0.287150472,0.728864494,0.231204981,0.301036903,0.418780327,right
0.458996252,0.340744724,0.261075515,0.21869663,0.368377874,0.378510021,0.340690749,0.382761522,0.398994979,0.30752505,0.73936985,0.262148448,0.322489197,0.423453353,right
0.460251176,0.335993752,0.259692327,0.217928299,0.358108056,0.391738309,0.359127475,0.377896652,0.394207344,0.300733524,0.735467899,0.286118763,0.318953095,0.41744554,right
0.462970577,0.342265412,0.258979902,0.21869663,0.366216241,0.393628212,0.361724064,0.370945702,0.382001244,0.288780065,0.727463755,0.287208473,0.3123527,0.420782931,right
0.467364006,0.348916338,0.260027708,0.219294256,0.387026596,0.389308582,0.349000231,0.372335539,0.382479826,0.293941998,0.733966943,0.286554481,0.314474271,0.427458561,right
0.462761821,0.346826026,0.259608522,0.21846897,0.36945972,0.385259378,0.339132598,0.37256762,0.379846717,0.294485196,0.739069583,0.290695049,0.319424455,0.425678845,right
0.463180129,0.341695063,0.25814153,0.217928299,0.36,0.385259378,0.337055227,0.369554983,0.378410518,0.292311887,0.739169418,0.299629349,0.328618231,0.427458561,right
0.470502511,0.342835036,0.258183512,0.219265805,0.39189233,0.389579008,0.339911921,0.383688962,0.401627632,0.312143268,0.746773269,0.310524796,0.344177171,0.446817635,right
0.472385296,0.346636393,0.259524717,0.219521915,0.390270076,0.387959533,0.334977857,0.394810305,0.404978612,0.323553529,0.746773269,0.297450343,0.347713273,0.455495869,right
0.467991866,0.347966723,0.259943903,0.21895274,0.354865091,0.383639903,0.326149155,0.380676326,0.372187595,0.301005123,0.73496758,0.272172458,0.336161796,0.436359684,right
0.470920819,0.348916338,0.25973431,0.220717168,0.370540537,0.387149281,0.324071785,0.368165146,0.366443253,0.280902143,0.734767529,0.290041057,0.337812007,0.42790349,right
0.475314249,0.346826026,0.260656328,0.221997718,0.393242836,0.380129496,0.31472337,0.368165146,0.376735028,0.284433447,0.739769953,0.308781508,0.345355572,0.435691867,right
0.468828483,0.340364733,0.25910553,0.221314686,0.382161891,0.364201054,0.303297585,0.369554983,0.358305549,0.286335157,0.734267211,0.27914561,0.340405388,0.430128983,right
0.475941313,0.345306063,0.256129722,0.221684707,0.384324554,0.369330935,0.307972039,0.369554983,0.346098538,0.278728834,0.731765999,0.266942594,0.339697898,0.423453353,right
0.483473247,0.354808007,0.257219511,0.221542399,0.380540666,0.383909301,0.316800741,0.365153392,0.359502002,0.287150472,0.737268741,0.291784345,0.345591701,0.429684054,right
0.470502511,0.341504706,0.257219511,0.21869663,0.354053964,0.382289825,0.316281522,0.369554983,0.371469723,0.309155162,0.737868894,0.304205636,0.347005783,0.423453353,right
0.467782314,0.32193047,0.25545912,0.21795675,0.360270204,0.379319244,0.315242589,0.380213047,0.371948304,0.312143268,0.73636832,0.310960929,0.352192545,0.414775118,right
0.479288574,0.32592146,0.257973919,0.220546355,0.386756906,0.378239594,0.313424828,0.389481273,0.38439415,0.314860292,0.744172222,0.317934081,0.369165117,0.437249542,right
0.482008771,0.335804119,0.260656328,0.221257784,0.38567609,0.385799204,0.321474701,0.394578224,0.396840908,0.320564905,0.747473639,0.316844371,0.373173029,0.459946854,right
0.47301236,0.330102807,0.258476911,0.219322707,0.384053835,0.396868191,0.324850613,0.376274734,0.374580957,0.303450031,0.738569264,0.325342952,0.362800403,0.448153269,right
0.46652739,0.321740836,0.25562689,0.218127508,0.391081203,0.38175,0.306933107,0.362140755,0.354954569,0.295028394,0.734767529,0.339943249,0.364921974,0.435024049,right
0.478243202,0.3232608,0.255123899,0.218525872,0.38567609,0.364740879,0.293170341,0.388322635,0.376974774,0.315675089,0.739469685,0.35105697,0.379301614,0.44481503,right
0.487238816,0.328772477,0.254537102,0.218838937,0.383784145,0.37743037,0.293430445,0.414967793,0.396361415,0.323553529,0.739970004,0.372412145,0.379537743,0.455495869,right
0.480334742,0.330862789,0.254411314,0.218781982,0.389729667,0.391738309,0.292910732,0.403383172,0.386787968,0.317576799,0.738569264,0.382000437,0.379773873,0.450377914,right
0.473221912,0.324781487,0.25625551,0.21818441,0.378918411,0.384988952,0.289275704,0.37812785,0.369794233,0.313230181,0.741070476,0.359772995,0.392267173,0.436136796,right
0.470292959,0.320410506,0.256590891,0.218013651,0.368377874,0.383909301,0.291612684,0.370945702,0.364289182,0.310242075,0.740370106,0.333841533,0.392974662,0.428348419,right
0.475732557,0.329342102,0.256045917,0.220546355,0.39189233,0.402808325,0.301220214,0.389481273,0.383197242,0.32898706,0.743271801,0.331444668,0.39108922,0.433912151,right
0.475732557,0.334093074,0.257387122,0.222339234,0.423243222,0.416576439,0.310828238,0.411491877,0.409047008,0.346644615,0.750775437,0.338853538,0.401225717,0.435469826,right
0.471757436,0.328011772,0.257596715,0.220717168,0.408918797,0.407127955,0.304596127,0.412882597,0.408568427,0.339853088,0.753676751,0.345390972,0.405940221,0.42790349,right
0.474058528,0.324211139,0.255291509,0.219066596,0.386216498,0.393088386,0.292131903,0.398285338,0.397798071,0.327899629,0.746173116,0.334059392,0.392267173,0.423230464,right
0.47426808,0.323640791,0.253866499,0.219322707,0.39837826,0.395788541,0.290054533,0.390407831,0.401387886,0.327356431,0.741370743,0.316626511,0.386373819,0.423008424,right
0.479288574,0.320980854,0.253615083,0.219151948,0.372161762,0.387689106,0.290054533,0.397589979,0.40402145,0.335778586,0.74837406,0.332098245,0.397453935,0.427458561,right
0.484518619,0.321360845,0.253908482,0.218810486,0.344053835,0.38606963,0.299142844,0.411028598,0.404500031,0.341754798,0.75137559,0.364349282,0.402404567,0.434802009,right
0.484728171,0.32193047,0.254369491,0.21869663,0.394324683,0.411716984,0.310309019,0.417516269,0.410005082,0.3412116,0.744372274,0.359991269,0.395096234,0.435024049,right
0.482217527,0.324401496,0.253531118,0.218383618,0.435404985,0.422246146,0.308750868,0.411723958,0.413356062,0.344471823,0.738169162,0.332098245,0.382130676,0.425011028,right
0.478033649,0.333333092,0.252902498,0.219664223,0.418378517,0.415767215,0.306413888,0.396432223,0.404260284,0.338494576,0.738869532,0.333405815,0.37600209,0.418113357,right
0.477197033,0.331433138,0.255417297,0.220432553,0.416486573,0.42062667,0.305635059,0.379054408,0.380325298,0.313773379,0.737268741,0.336892391,0.380245233,0.419670185,right
0.473431464,0.321170488,0.256045917,0.219379608,0.40783798,0.415767215,0.293430445,0.378359931,0.378649808,0.318119997,0.738869532,0.314011787,0.39108922,0.422785535,right
0.474686388,0.324401496,0.254117915,0.220119542,0.373513298,0.393898638,0.288755991,0.408480123,0.418861113,0.352892943,0.747973958,0.313357794,0.402168438,0.424343211,right
0.484309863,0.330862789,0.254788518,0.222111521,0.394053964,0.400647996,0.307192716,0.434198724,0.445428296,0.361858296,0.750875272,0.334059392,0.408769282,0.426568703,right
0.481590463,0.325541469,0.254704712,0.221058576,0.416756263,0.414686536,0.313165218,0.424467218,0.42292951,0.350176953,0.743171585,0.329919239,0.403818649,0.425233916,right
0.475314249,0.320410506,0.252189913,0.219066596,0.394865091,0.403887975,0.292391513,0.406394926,0.399233814,0.346916731,0.737668843,0.322292094,0.397925295,0.419893073,right
0.475941313,0.317940203,0.252651082,0.219095047,0.396486316,0.390118834,0.278369138,0.408943402,0.406654102,0.349633755,0.744772376,0.340378967,0.405704989,0.420115961,right
0.475523005,0.303116939,0.252651082,0.218668179,0.398108571,0.395518114,0.2890156,0.41705299,0.415270387,0.354523571,0.748974595,0.342340114,0.413248554,0.42412117,right
0.477824097,0.302356233,0.250764903,0.218042102,0.372432481,0.404427801,0.304076908,0.411028598,0.407371518,0.347459929,0.740670374,0.326432662,0.404054778,0.418113357,right
0.474058528,0.320220149,0.251100284,0.218241311,0.376486059,0.405238053,0.303297585,0.400833814,0.396840908,0.325455239,0.730965413,0.322946086,0.386373819,0.40364935,right
0.468619727,0.313949213,0.250639275,0.217359124,0.395945908,0.405238053,0.285640182,0.39156647,0.388942039,0.306710254,0.721360668,0.315101082,0.366336056,0.392745623,right
0.472594052,0.297985252,0.248292087,0.216903805,0.398918669,0.414686536,0.285120469,0.388090554,0.377214065,0.294756795,0.71045521,0.308781508,0.351720287,0.39029809,right
0.473221912,0.30748792,0.248962689,0.218241311,0.41108146,0.42926593,0.308231649,0.384846719,0.368358033,0.295843708,0.713756817,0.322728227,0.353842756,0.390520978,right
0.468828483,0.309198241,0.251100284,0.21846897,0.401891429,0.412796634,0.300441386,0.371408981,0.376495737,0.320564905,0.731765999,0.349313267,0.374587111,0.392078653,right
0.465062914,0.296274931,0.249968513,0.217615234,0.377567905,0.381479574,0.272396636,0.370945702,0.393489928,0.345287137,0.741470578,0.363042127,0.398396656,0.394081258,right
0.470292959,0.30121626,0.249339893,0.218611278,0.38891854,0.379049846,0.278109529,0.38531088,0.403781703,0.350448035,0.741470578,0.352799843,0.407590432,0.398976324,right
0.475104697,0.30748792,0.250220089,0.220461058,0.395405499,0.395788541,0.294209274,0.389017994,0.404738866,0.348275243,0.740970641,0.338635679,0.39108922,0.405651954,right
0.469874651,0.302546591,0.248836902,0.22134319,0.387568034,0.400918423,0.292651122,0.386932798,0.408568427,0.353165059,0.73936985,0.340161108,0.379301614,0.404317167,right
0.470502511,0.301025903,0.247453874,0.221684707,0.378378003,0.387959533,0.290054533,0.382067045,0.406892937,0.351806547,0.738769315,0.34582669,0.387552669,0.398531395,right
0.469038035,0.299505939,0.248040671,0.221143982,0.35675652,0.383909301,0.287717553,0.372798818,0.386309387,0.33360476,0.738969367,0.332533963,0.387788798,0.394748227,right
0.46652739,0.299695573,0.249507504,0.220717168,0.355675703,0.391198484,0.287717553,0.375579374,0.376256447,0.321651818,0.738969367,0.319023377,0.379301614,0.394748227,right
0.470502511,0.303306572,0.250471505,0.221656202,0.387026596,0.393088386,0.293949664,0.382067045,0.382479826,0.323825128,0.739569901,0.31815194,0.372465539,0.390520978,right
0.470084203,0.302356233,0.249507504,0.221485498,0.398648979,0.387149281,0.288236772,0.371176901,0.377453355,0.3173052,0.73566795,0.315101082,0.372465539,0.385847952,right
0.469874651,0.299315582,0.249088477,0.220432553,0.384324554,0.385528777,0.273435568,0.360750918,0.367400415,0.311056872,0.728664443,0.311832365,0.369872607,0.383400419,right
0.463598437,0.286013005,0.249842885,0.220347147,0.371892073,0.384988952,0.27966768,0.359823919,0.368118743,0.312143268,0.724762492,0.314011787,0.358085899,0.373831479,right
0.45439327,0.270619392,0.247118493,0.221143982,0.374864834,0.386339029,0.300700995,0.361445836,0.374102375,0.31350178,0.724862517,0.308563648,0.356435688,0.377836687,right
0.458158839,0.284112327,0.245525872,0.221770004,0.390270076,0.393898638,0.300960605,0.365847869,0.387266549,0.328443862,0.730765362,0.298539638,0.367279675,0.390743019,right
0.463598437,0.298745958,0.246992705,0.220688663,0.39216202,0.388499358,0.279148461,0.368165146,0.408089846,0.353708257,0.739169418,0.314447505,0.383309526,0.380507109,right
0.462552269,0.286392996,0.247160475,0.21949341,0.375675961,0.377159944,0.268241895,0.367006508,0.406892937,0.352621861,0.739469685,0.330137098,0.38991037,0.364931203,right
0.4587867,0.279741346,0.245944899,0.220660158,0.365945522,0.378779419,0.275512939,0.37187226,0.396840908,0.340940519,0.735868001,0.314883223,0.38991037,0.38006218,right
0.459205008,0.289623281,0.245693483,0.221656202,0.363513169,0.376889517,0.285120469,0.378591129,0.405217447,0.352349745,0.738169162,0.304859213,0.385902458,0.396083862,right
0.464644605,0.290003995,0.247956706,0.220745564,0.374594115,0.37743037,0.298623625,0.374420736,0.406414356,0.356425282,0.739669736,0.317716222,0.380480465,0.389185343,right
0.463598437,0.282402006,0.248375892,0.220290245,0.394324683,0.390929085,0.311867171,0.372335539,0.390857276,0.331431968,0.734166994,0.310960929,0.378123662,0.394081258,right
0.461087792,0.282592001,0.246238297,0.220603257,0.395945908,0.395248715,0.316021912,0.378591129,0.384633897,0.315946688,0.726963436,0.283939756,0.363743124,0.397641537,right
0.4587867,0.285633014,0.244603694,0.219578817,0.386486187,0.387689106,0.308231649,0.375579374,0.380565045,0.3173052,0.719859903,0.284811193,0.344648531,0.376946829,right
0.454184514,0.282971992,0.242759498,0.218611278,0.381081074,0.376620118,0.290314142,0.357507083,0.359980583,0.304536944,0.713857033,0.299193631,0.332390014,0.364263386,right
0.452510486,0.277271043,0.241166877,0.217985201,0.354053964,0.369600334,0.287717553,0.350556133,0.346098538,0.289323781,0.71275637,0.305948924,0.338283817,0.380952038,right
0.45230173,0.278031025,0.241334488,0.21770064,0.330810741,0.373650565,0.304336517,0.362836114,0.360698911,0.301820437,0.717658768,0.317498363,0.348891674,0.398976324,right
0.459623316,0.286963344,0.243891269,0.218639728,0.364595015,0.389039183,0.31238639,0.364458032,0.370512105,0.315131891,0.718659405,0.321202798,0.346770103,0.399644142,right
0.462133961,0.287723326,0.243639693,0.219095047,0.39189233,0.389579008,0.315502199,0.361445836,0.367161125,0.312686983,0.716958589,0.321420657,0.352192545,0.395193156,right
0.455648991,0.280121698,0.240873478,0.217899795,0.373243608,0.379049846,0.332381267,0.374884015,0.380086008,0.3173052,0.720160171,0.333187956,0.364450614,0.401201817,right
0.459832868,0.28487267,0.241711691,0.218042102,0.377027496,0.389579008,0.34718247,0.398517419,0.398276652,0.336321784,0.728464201,0.343647684,0.37482324,0.419225256,right
0.468200622,0.298175609,0.244519889,0.220432553,0.389189259,0.396057939,0.344066662,0.411491877,0.409765336,0.353980373,0.736568371,0.357157855,0.380245233,0.434134191,right
0.471339127,0.294374976,0.245525872,0.221229388,0.357297443,0.37743037,0.334977857,0.3971267,0.409047008,0.352621861,0.735467899,0.373283581,0.378358893,0.433021445,right
0.461925205,0.278411016,0.243807464,0.219408113,0.34243261,0.367170606,0.335756685,0.367469786,0.390377783,0.332246248,0.728164124,0.35476099,0.369872607,0.42412117,right
0.448744917,0.270239402,0.240621983,0.217444476,0.359459592,0.380129496,0.34718247,0.352872969,0.370272814,0.317576799,0.725062568,0.324907234,0.361386321,0.418113357,right
0.453347102,0.274610383,0.240957284,0.217757541,0.370269818,0.389039183,0.356790495,0.367006508,0.369075905,0.321923417,0.726263066,0.33580268,0.367279675,0.425678845,right
0.454184514,0.280121698,0.243262489,0.219351211,0.382161891,0.383909301,0.353674192,0.379286489,0.379846717,0.330073456,0.726463308,0.35214585,0.374351879,0.428794196,right
0.442887011,0.268909071,0.240454372,0.217729091,0.372161762,0.38175,0.357828933,0.382993603,0.391814438,0.330345572,0.72386188,0.338199961,0.357614538,0.403426462,right
0.443305717,0.259026775,0.237310873,0.216306179,0.36972941,0.384449126,0.376006049,0.391103191,0.401627632,0.328171746,0.722561357,0.326650522,0.348184633,0.389630272,right
0.452092178,0.280121698,0.241586063,0.21920885,0.388378131,0.385528777,0.369773937,0.37882321,0.386309387,0.321923417,0.721961012,0.344955254,0.369401246,0.414330189,right
0.4615061,0.30083627,0.247328086,0.221997718,0.371892073,0.380939748,0.346922861,0.349629134,0.355911731,0.312415384,0.71855938,0.364131838,0.365629464,0.429016237,right
0.469038035,0.299315582,0.249884708,0.222453037,0.357567648,0.37311074,0.347961299,0.348007658,0.34873119,0.311871669,0.713756817,0.362606409,0.338047687,0.423676241,right
0.472803604,0.301786609,0.252273878,0.224672729,0.386486187,0.364470452,0.354972734,0.365616671,0.35543315,0.308883563,0.712856396,0.362606409,0.345591701,0.425455957,right
0.463807989,0.309007884,0.251477488,0.225981785,0.383784145,0.351242164,0.344326271,0.355885165,0.344662338,0.287150472,0.70235123,0.356940411,0.339226538,0.407431671,right
0.448117056,0.301976242,0.248208282,0.22492884,0.337026982,0.342872816,0.34017153,0.336422595,0.331258874,0.271937308,0.683541844,0.341686537,0.297972611,0.36982627,right
0.453138346,0.296654922,0.249800902,0.226636312,0.344864962,0.351242164,0.343027729,0.335727677,0.340593486,0.281173742,0.678139127,0.343211966,0.297736931,0.369158453,right
0.460041624,0.30615759,0.253195897,0.229169016,0.377837594,0.353671891,0.334718247,0.332483841,0.340832777,0.280358428,0.677638809,0.34582669,0.314002462,0.392300694,right
0.462133961,0.321550479,0.254076092,0.230221961,0.362162663,0.350701824,0.344066662,0.324142614,0.308042215,0.25183381,0.668534192,0.338853538,0.292786298,0.394526187,right
0.477197033,0.330862789,0.256632714,0.232157039,0.347297315,0.365011305,0.373669069,0.33294712,0.292244933,0.240152468,0.665032534,0.339943249,0.285007052,0.398308507,right
0.481171358,0.332002762,0.259650505,0.23329539,0.378918411,0.372840314,0.378862742,0.353568329,0.320488062,0.264058868,0.670535276,0.338853538,0.306223217,0.417890469,right
0.471966988,0.33390344,0.259021725,0.23278317,0.397297443,0.365820529,0.367436957,0.359592279,0.347295446,0.291225491,0.675337648,0.336892391,0.319896265,0.423008424,right
0.467782314,0.328772477,0.25625551,0.231986335,0.352702943,0.365820529,0.380940113,0.352178051,0.341311358,0.283347051,0.675737941,0.342557973,0.313295421,0.410547021,right
0.463598437,0.326111817,0.254159898,0.230990291,0.345675575,0.374730216,0.406647388,0.354263247,0.329822674,0.257538941,0.670235199,0.334277251,0.295851039,0.392078653,right
0.461925205,0.3365641,0.252525294,0.230534972,0.40486522,0.374999614,0.404829627,0.357970362,0.343226595,0.257538941,0.661230608,0.316844371,0.286185454,0.36982627,right
0.465690774,0.336373743,0.252189913,0.231274906,0.421621997,0.369330935,0.394183165,0.361214197,0.367161125,0.280086829,0.665232585,0.322074235,0.304573006,0.368713524,right
0.468619727,0.320030515,0.25403411,0.231474115,0.389458948,0.373380139,0.40560895,0.373030899,0.375059994,0.292311887,0.679839944,0.346480683,0.330740252,0.393190552,right
0.472803604,0.322880809,0.254495119,0.23170172,0.378648722,0.384719553,0.427681198,0.387396077,0.362613692,0.28742207,0.68454229,0.366964421,0.329090041,0.409212234,right
0.480544294,0.345495696,0.254285686,0.232441654,0.390810484,0.393628212,0.436770003,0.385542078,0.347534737,0.280086829,0.680940416,0.370668442,0.322017836,0.405651954,right
0.483054939,0.354048025,0.255040093,0.232953874,0.39189233,0.384179728,0.431056616,0.371176901,0.35375766,0.287965268,0.683941946,0.363695289,0.332154333,0.399644142,right
0.478243202,0.350627383,0.254285686,0.233153083,0.402702557,0.38175,0.427421094,0.367238588,0.373145213,0.310785273,0.692246167,0.365656437,0.347948953,0.400311111,right
0.478033649,0.349297053,0.253950305,0.233153083,0.418648207,0.396598793,0.432096043,0.369091704,0.381043626,0.320021707,0.693646907,0.372412145,0.346298742,0.402981533,right
0.476359621,0.350817017,0.255291509,0.23227095,0.414054221,0.399837744,0.429758074,0.354494887,0.368358033,0.298288616,0.686143081,0.363913563,0.318481734,0.387405627,right
0.471757436,0.346446036,0.254243703,0.230620379,0.384594243,0.378239594,0.414697755,0.336190956,0.351125008,0.283890249,0.681040442,0.355414982,0.308344788,0.372941621,right
0.476150865,0.330482798,0.252441489,0.229453631,0.365675832,0.364470452,0.41261989,0.341751627,0.344901629,0.286335157,0.682641423,0.363477845,0.333568864,0.387405627,right
0.475314249,0.327062156,0.253195897,0.229567434,0.381892201,0.387418679,0.430278282,0.354726526,0.348252609,0.284161848,0.683141551,0.372630419,0.345119892,0.403426462,right
0.471757436,0.344926072,0.253447313,0.230221961,0.393513555,0.391738309,0.432615262,0.355421886,0.35040668,0.28552036,0.681841027,0.373066137,0.32696802,0.400311111,right
0.471757436,0.346826026,0.2513517,0.229567434,0.39189233,0.370679984,0.43131672,0.361677476,0.348491899,0.288236867,0.682341156,0.362606409,0.319660136,0.385847952,right
0.469038035,0.325161478,0.249423699,0.228286883,0.376756778,0.364201054,0.436509899,0.372798818,0.341311358,0.280086829,0.676638362,0.341904396,0.319188775,0.377391758,right
0.474058528,0.326301451,0.250052478,0.228372181,0.348107927,0.354211716,0.41729385,0.36538459,0.327668603,0.274110617,0.671235646,0.334059392,0.308344788,0.385625064,right
0.474686388,0.345306063,0.251896515,0.228799103,0.352432224,0.333153392,0.391326966,0.347775577,0.326232404,0.279272032,0.68084039,0.358683284,0.320838986,0.398531395,right
0.470084203,0.345306063,0.25340549,0.229026709,0.388108442,0.334773381,0.395221603,0.347775577,0.348013318,0.296658505,0.696948514,0.38483302,0.354549348,0.397418649,right
0.47364022,0.342455045,0.256004094,0.229425126,0.380000257,0.343952467,0.403531085,0.357275443,0.364528472,0.318935311,0.703251651,0.380692452,0.368929886,0.398308507,right
0.474686388,0.346066045,0.255040093,0.229738138,0.352432224,0.347462359,0.406647388,0.356116805,0.356630059,0.318663712,0.701250568,0.370450997,0.360442702,0.399199213,right
0.468828483,0.335043413,0.248627308,0.228116071,0.36324348,0.366630781,0.426901875,0.33966643,0.329583384,0.286878873,0.69264627,0.360426987,0.336869286,0.370494087,right
0.458577944,0.319269809,0.244268473,0.225241851,0.361351536,0.380939748,0.447416465,0.329240006,0.305169817,0.25781054,0.675237623,0.342994107,0.305044815,0.348909521,right
0.455439439,0.319460167,0.246531696,0.225213454,0.353783759,0.378510021,0.448715007,0.349397495,0.31977019,0.265145264,0.670935569,0.344083402,0.303865965,0.361592965,right
0.454811578,0.325541469,0.249591309,0.22780306,0.374053706,0.374459789,0.441963182,0.382761522,0.370751395,0.298831814,0.687243553,0.363913563,0.332390014,0.37338655,right
0.449999841,0.326681442,0.249800902,0.229026709,0.394053964,0.379049846,0.441443963,0.401065895,0.406414356,0.325726838,0.697948961,0.377859868,0.344884211,0.374276408,right
0.457740531,0.329532459,0.25055531,0.228486092,0.386756906,0.383639903,0.446117923,0.395736863,0.397558324,0.31920691,0.696448195,0.37742415,0.34252696,0.382064784,right
0.462761821,0.335423404,0.25055531,0.228030773,0.370540537,0.369870761,0.430537397,0.364921311,0.354715278,0.288236867,0.689744956,0.360426987,0.335219075,0.37338655,right
0.462552269,0.348536347,0.249423699,0.228457587,0.380000257,0.363930627,0.413918432,0.334105759,0.32647215,0.272752105,0.682541207,0.345390972,0.325553938,0.353804588,right
0.469038035,0.351767356,0.251728904,0.229026709,0.393784274,0.377159944,0.420670257,0.324374254,0.331258874,0.289323781,0.686343132,0.355850701,0.340876749,0.367378737,right
0.467991866,0.337134449,0.25340549,0.228856005,0.389729667,0.384449126,0.432615262,0.332715481,0.348970936,0.31160007,0.702651307,0.371322434,0.371051457,0.392523582,right
0.467364006,0.335613761,0.251770887,0.228457587,0.387568034,0.380399923,0.438587764,0.358897361,0.365485635,0.329530258,0.712856396,0.379385297,0.385431097,0.398531395,right
0.474476836,0.342455045,0.249465681,0.228343785,0.392702428,0.385528777,0.441443963,0.379517687,0.377453355,0.336864982,0.714357161,0.390499018,0.39108922,0.398308507,right
0.476987481,0.331433138,0.249717097,0.22780306,0.385945779,0.389848407,0.43832766,0.374189538,0.386787968,0.33740818,0.715757901,0.389627581,0.394153513,0.400978929,right
0.473431464,0.322311184,0.251477488,0.227091631,0.372432481,0.382559224,0.432355158,0.367701867,0.391335857,0.33469219,0.712556319,0.388319596,0.382838165,0.404762096,right
0.46715525,0.327631781,0.249088477,0.225981785,0.375405242,0.380399923,0.433134481,0.36538459,0.387026803,0.327356431,0.707953998,0.394203038,0.376237322,0.395416045,right
0.458368392,0.321170488,0.243891269,0.224018202,0.384324554,0.384449126,0.434433023,0.355190247,0.379607427,0.318119997,0.707153603,0.366528703,0.368929886,0.365376132,right
0.447071684,0.312048535,0.24485527,0.223989697,0.38864885,0.387418679,0.435730576,0.360982557,0.381761498,0.316490403,0.706153156,0.33841782,0.352899137,0.350690085,right
0.449163225,0.320220149,0.2491303,0.226038686,0.389729667,0.383909301,0.436250784,0.378591129,0.383436988,0.321380219,0.705452786,0.357811848,0.354314116,0.367155848,right
0.457322223,0.324211139,0.248124476,0.226180993,0.38567609,0.37743037,0.419890934,0.368860506,0.368358033,0.316490403,0.706953552,0.369797005,0.364685845,0.374276408,right
0.450418945,0.320790497,0.246489873,0.224729631,0.36972941,0.376349692,0.402752751,0.347775577,0.353279079,0.310785273,0.71115558,0.359555551,0.367514906,0.370494087,right
0.454184514,0.321360845,0.249256088,0.224871938,0.364864705,0.380129496,0.419371715,0.362372394,0.363092273,0.322195016,0.714457187,0.37851386,0.368458525,0.377391758,right
0.462133961,0.326111817,0.248920707,0.226124092,0.384324554,0.392279163,0.446897246,0.406162846,0.406654102,0.346373533,0.715557849,0.403137338,0.372465539,0.383845348,right
0.451046009,0.32725179,0.244561871,0.225526466,0.395405499,0.398218268,0.449234226,0.432808004,0.451411929,0.367020228,0.716758347,0.407713624,0.375058471,0.380729997,right
0.447489992,0.315089186,0.24422649,0.223022158,0.389458948,0.394169065,0.452350529,0.427711053,0.459789379,0.36647703,0.71785901,0.423185358,0.3752946,0.372496692,right
0.452510486,0.307107205,0.246112669,0.221058576,0.382702299,0.384719553,0.459880688,0.404540928,0.430349797,0.349904837,0.71645827,0.428415637,0.370815328,0.372718732,right
0.453766206,0.316419516,0.243681676,0.221400092,0.375135552,0.37311074,0.444560266,0.364689671,0.375777865,0.318391596,0.709154686,0.400740472,0.356199559,0.376724789,right
0.452092178,0.316989864,0.239657982,0.22108708,0.378648722,0.37743037,0.433393596,0.332483841,0.329104802,0.282260138,0.695247698,0.365003274,0.338990857,0.35647501,right
0.436820349,0.30121626,0.236975572,0.219351211,0.390270076,0.381479574,0.433393596,0.337117955,0.319530899,0.267590172,0.681941053,0.341904396,0.319660136,0.329550448,right
0.427615182,0.297034913,0.237310873,0.220005631,0.387568034,0.373919964,0.41729385,0.35264133,0.341551104,0.270578796,0.677939076,0.342557973,0.305044815,0.32932756,right
0.436820349,0.305967232,0.240705868,0.222310729,0.388378131,0.368520684,0.402492647,0.364689671,0.365485635,0.286335157,0.687443795,0.359991269,0.31164521,0.337783753,right
0.446652978,0.30748792,0.244561871,0.222623741,0.382161891,0.362311151,0.406647388,0.379517687,0.378649808,0.306710254,0.698449279,0.371322434,0.332154333,0.340899104,right
0.456694363,0.311668544,0.247160475,0.222965257,0.364595015,0.366360354,0.421968799,0.383688962,0.387984877,0.320564905,0.704852442,0.382000437,0.350070973,0.366710919,right
0.471339127,0.322500818,0.248711273,0.224416619,0.372161762,0.38606963,0.448974122,0.381139604,0.398994979,0.336321784,0.715557849,0.411200201,0.369636478,0.406541813,right
0.482635835,0.328392486,0.251100284,0.224160509,0.383784145,0.384988952,0.465593087,0.399211896,0.418621367,0.36729131,0.731865834,0.439965076,0.396982574,0.427681449,right
0.480125986,0.329722817,0.249968513,0.222453037,0.380000257,0.369870761,0.469488713,0.429332971,0.442795644,0.389296517,0.738469429,0.437568211,0.411126983,0.429684054,right
0.471966988,0.325731826,0.244897093,0.221741608,0.379459849,0.383099049,0.470007932,0.434198724,0.442555897,0.374082836,0.729464838,0.413379622,0.398868016,0.414330189,right
0.458996252,0.319840158,0.2434301,0.221513894,0.387568034,0.393088386,0.444819381,0.408712204,0.409047008,0.345558219,0.714457187,0.393549876,0.368693757,0.381619855,right
0.438284826,0.319080176,0.243011073,0.221371695,0.405405628,0.380669322,0.406647388,0.37187226,0.374580957,0.320564905,0.699449726,0.365003274,0.329325721,0.340009246,right
0.437866119,0.325351835,0.241669869,0.222965257,0.411621869,0.381479574,0.393403842,0.340592988,0.352800498,0.290681776,0.690345109,0.330137098,0.315416993,0.324655381,right
0.453766206,0.327822138,0.243262489,0.225384158,0.387297315,0.383909301,0.404570512,0.326691531,0.336285344,0.272752105,0.6919459,0.33972539,0.327204149,0.346906917,right
0.460041624,0.326871799,0.245986881,0.225298752,0.390810484,0.384719553,0.424564894,0.342678626,0.345380666,0.289866979,0.694347277,0.370232723,0.329325721,0.367600777,right
0.461087792,0.326871799,0.245064703,0.223278268,0.425675575,0.397408016,0.438846879,0.372798818,0.376974774,0.310785273,0.691745849,0.365874711,0.324139408,0.366710919,right
0.462552269,0.316989864,0.241208859,0.221371695,0.406215726,0.397408016,0.434952242,0.393419586,0.400430723,0.316762002,0.694647354,0.355196708,0.333568864,0.361370924,right
0.464016745,0.3021666,0.239741867,0.219465014,0.369189001,0.384719553,0.435471461,0.404540928,0.414073478,0.331975166,0.706653284,0.366746147,0.353842756,0.370049158,right
0.458996252,0.298365243,0.242382294,0.217814443,0.387026596,0.398218268,0.451830321,0.425393776,0.443274225,0.355882084,0.714457187,0.369797005,0.368929886,0.382287672,right
0.457740531,0.301786609,0.244813287,0.21818441,0.404324811,0.422785971,0.471825693,0.445087985,0.472713806,0.364303204,0.714257136,0.366310429,0.373879621,0.389853161,right
0.466736942,0.302736224,0.243052896,0.21844052,0.375675961,0.412527235,0.477278976,0.433734562,0.461225122,0.358326992,0.711755924,0.372630419,0.367751035,0.404094279,right
0.464853361,0.300265921,0.241711691,0.217757541,0.354324168,0.380939748,0.453908186,0.413345876,0.43968441,0.361858296,0.715057531,0.390499018,0.372465539,0.419893073,right
0.4615061,0.301596251,0.244310296,0.21980653,0.373784017,0.378510021,0.430537397,0.409175483,0.434896775,0.361586179,0.720560273,0.415559043,0.378830254,0.414998006,right
0.486610956,0.305967232,0.253531118,0.227746158,0.380000257,0.407937179,0.474681892,0.417516269,0.439923245,0.377886256,0.741170692,0.401394464,0.437293331,0.433466374,left
0.49351503,0.324211139,0.256339316,0.229026709,0.397567133,0.410906732,0.481952936,0.420296825,0.449497604,0.395001648,0.751776074,0.420788492,0.449552297,0.446150665,left
0.49790846,0.327062156,0.256758502,0.229368225,0.42081087,0.409557683,0.491300856,0.416589711,0.435854849,0.378158373,0.752976381,0.438439647,0.439651032,0.44103271,left
0.496443983,0.318320194,0.255249686,0.228201477,0.402702557,0.411447585,0.49623492,0.408480123,0.416945877,0.351806547,0.748074174,0.446719954,0.424092541,0.427458561,left
0.493933338,0.321740836,0.2560879,0.228258379,0.384594243,0.409017857,0.500908881,0.412882597,0.417185623,0.359684469,0.749875016,0.450424805,0.43752946,0.435246938,left
0.499372936,0.332002762,0.259189495,0.229425126,0.436486831,0.416036614,0.505063622,0.43535648,0.432264122,0.380060083,0.752276011,0.447809665,0.454738161,0.457276433,left
0.506276214,0.331813128,0.257890113,0.229823544,0.45918913,0.430616007,0.50610206,0.435820641,0.436093683,0.384134585,0.751875909,0.436914218,0.447429828,0.450600802,left
0.499163384,0.327062156,0.252944481,0.228628291,0.398918669,0.41522739,0.500389662,0.412650516,0.429152888,0.376799861,0.748774543,0.41381534,0.435171759,0.425011028,left
0.491213938,0.319080176,0.251267895,0.226550906,0.379729538,0.387418679,0.482212051,0.405236288,0.42795598,0.365932798,0.739469685,0.396382459,0.43564312,0.422785535,left
0.487866677,0.30748792,0.250513487,0.224985741,0.40162174,0.382019399,0.471825693,0.411491877,0.425562162,0.355609967,0.729064736,0.387012442,0.422913691,0.42478814,left
0.480962602,0.297795618,0.248375892,0.224046707,0.391621611,0.388228931,0.479096737,0.402687812,0.412159153,0.344471823,0.718359138,0.359991269,0.386138587,0.39029809,left
0.475104697,0.294374976,0.249465681,0.224018202,0.391621611,0.386878854,0.472605016,0.380908406,0.398516398,0.32980134,0.712956422,0.324253656,0.3752946,0.364040498,left
0.47866151,0.2985556,0.251687081,0.224815037,0.39837826,0.390929085,0.469228609,0.377664571,0.397558324,0.325726838,0.719459801,0.321420657,0.396982574,0.386960698,left
0.493305478,0.302546591,0.252106108,0.225270356,0.373784017,0.396328366,0.493118617,0.400139337,0.404260284,0.333061562,0.72526262,0.352799843,0.40546886,0.409212234,left
0.492677618,0.298745958,0.250345877,0.224530422,0.374324425,0.394978289,0.500648777,0.412650516,0.397798071,0.32980134,0.720760324,0.359555551,0.391324451,0.397863578,left
0.479498126,0.293044646,0.24992669,0.224502026,0.40486522,0.393898638,0.475201111,0.403151091,0.399952142,0.337137099,0.725162594,0.363259571,0.397217805,0.398976324,left
0.482845387,0.2985556,0.252231896,0.226323301,0.401351021,0.390118834,0.455206728,0.396663421,0.420296857,0.358598073,0.738869532,0.403137338,0.424092541,0.42056089,left
0.490167769,0.311858177,0.251687081,0.227575455,0.394594372,0.389848407,0.450272664,0.392029749,0.419578529,0.35696848,0.743171585,0.416866198,0.433757678,0.427458561,left
0.495816123,0.324971121,0.251519311,0.228514489,0.415675446,0.392279163,0.441443963,0.379749768,0.402106213,0.354794653,0.747273588,0.395292749,0.427628194,0.423898282,left
0.494979507,0.32193047,0.253028286,0.229026709,0.421621997,0.397947842,0.439885317,0.376738013,0.406175521,0.370008334,0.748974595,0.385922731,0.419141908,0.411437727,left
0.481171358,0.305967232,0.25072308,0.22857139,0.408918797,0.405777878,0.453388967,0.387627275,0.418861113,0.367020228,0.738469429,0.380692452,0.40546886,0.394526187,left
0.478870266,0.308247902,0.247872901,0.228116071,0.386756906,0.402267472,0.465333972,0.388322635,0.410005082,0.348275243,0.72896452,0.362388135,0.392031941,0.391410836,left
