,AF3,F7,F3,F5,T7,P7,O1,O2,P8,T8,FC6,F4,F8,AF4,ID_all_events,EventId
0,4119.4873046875,4120.1284179688,4114.2309570313,4089.4870605469,4081.1538085938,4110.7690429688,4086.0256347656,4112.5639648438,4109.8715820313,4101.41015625,4111.1538085938,4123.9741210938,4119.7436523438,4134.3588867188,1.0,33025.0
1,4114.1025390625,4122.5639648438,4118.9741210938,4089.4870605469,4090.2563476563,4108.0771484375,4080.3845214844,4123.7177734375,4125.384765625,4112.1796875,4128.0771484375,4140.384765625,4125.5126953125,4132.1796875,2.0,33025.0
2,4109.615234375,4124.1025390625,4116.2822265625,4100.2563476563,4084.6154785156,4105.7690429688,4081.6667480469,4126.5385742188,4126.6665039063,4120.5126953125,4134.1025390625,4135.8974609375,4128.7177734375,4130.0,3.0,33025.0
3,4105.384765625,4112.5639648438,4097.8203125,4093.4614257813,4075.3845214844,4108.3334960938,4091.1538085938,4126.0258789063,4127.5639648438,4118.9741210938,4124.3588867188,4127.1796875,4124.8715820313,4129.1025390625,4.0,33025.0
4,4102.8203125,4105.6411132813,4080.6411132813,4077.6923828125,4086.0256347656,4108.0771484375,4086.5385742188,4126.2822265625,4125.6411132813,4109.2309570313,4112.1796875,4119.1025390625,4113.3334960938,4127.1796875,5.0,33025.0
5,4105.7690429688,4118.7177734375,4097.4360351563,4098.3334960938,4096.41015625,4102.9487304688,4069.4870605469,4115.6411132813,4107.6923828125,4096.0258789063,4107.0512695313,4121.5385742188,4104.2309570313,4119.3588867188,6.0,33025.0
6,4101.2822265625,4127.5639648438,4125.7690429688,4126.794921875,4091.2819824219,4104.1025390625,4062.0512695313,4099.615234375,4087.5642089844,4081.794921875,4093.205078125,4120.0,4095.7692871094,4109.1025390625,7.0,33025.0
7,4093.0769042969,4124.615234375,4119.7436523438,4121.6665039063,4092.3076171875,4105.384765625,4054.6154785156,4091.2819824219,4074.1025390625,4068.3332519531,4067.4357910156,4102.4360351563,4080.6411132813,4099.7436523438,8.0,33025.0
8,4106.6665039063,4140.5126953125,4116.0258789063,4127.9487304688,4099.4873046875,4097.3076171875,4041.794921875,4087.4357910156,4068.4614257813,4068.3332519531,4063.205078125,4108.3334960938,4079.7436523438,4105.6411132813,9.0,33025.0
9,4130.6411132813,4164.2309570313,4142.9487304688,4158.0771484375,4096.1538085938,4090.0,4042.4357910156,4092.0512695313,4080.1281738281,4077.6923828125,4078.58984375,4142.5639648438,4095.8974609375,4125.5126953125,10.0,33025.0
10,4130.6411132813,4162.3076171875,4150.384765625,4163.0771484375,4089.7436523438,4095.1281738281,4056.2819824219,4099.2309570313,4091.9230957031,4080.5129394531,4071.5385742188,4147.9487304688,4094.4870605469,4125.8974609375,11.0,33025.0
11,4114.2309570313,4158.4614257813,4129.3588867188,4157.4360351563,4090.6411132813,4106.2822265625,4070.1281738281,4103.9741210938,4097.8203125,4080.8974609375,4055.6411132813,4135.5126953125,4080.5129394531,4107.4360351563,12.0,33025.0
12,4129.3588867188,4169.615234375,4134.4873046875,4171.5385742188,4096.0258789063,4113.7177734375,4081.794921875,4117.0512695313,4115.2563476563,4090.3845214844,4059.8718261719,4149.1025390625,4085.3845214844,4107.0512695313,13.0,33025.0
13,4175.384765625,4175.5126953125,4169.2309570313,4188.7177734375,4097.8203125,4112.6923828125,4086.41015625,4125.2563476563,4126.0258789063,4097.9487304688,4062.1794433594,4158.9741210938,4095.1281738281,4116.9228515625,14.0,33025.0
14,4187.3076171875,4172.1796875,4180.6411132813,4190.384765625,4094.6154785156,4104.2309570313,4073.58984375,4114.1025390625,4106.41015625,4088.3332519531,4049.3588867188,4139.8715820313,4087.1794433594,4113.4614257813,15.0,33025.0
15,4151.5385742188,4164.2309570313,4150.5126953125,4179.7436523438,4092.5642089844,4105.7690429688,4063.9743652344,4104.7436523438,4088.3332519531,4073.7180175781,4031.794921875,4119.615234375,4073.8461914063,4101.1538085938,16.0,33025.0
16,4123.4614257813,4156.2822265625,4127.1796875,4170.6411132813,4093.9743652344,4108.4614257813,4065.6411132813,4109.1025390625,4096.2822265625,4074.2307128906,4023.0769042969,4122.1796875,4072.8205566406,4090.5129394531,17.0,33025.0
17,4125.2563476563,4156.2822265625,4132.1796875,4170.7690429688,4100.2563476563,4093.9743652344,4057.1794433594,4106.794921875,4099.2309570313,4079.3588867188,4029.2307128906,4128.9741210938,4078.7180175781,4083.58984375,18.0,33025.0
18,4125.384765625,4148.58984375,4137.9487304688,4171.794921875,4106.2822265625,4092.5642089844,4050.0,4089.4870605469,4082.5642089844,4066.41015625,4026.41015625,4116.41015625,4071.5385742188,4070.0,19.0,33025.0
19,4117.0512695313,4138.205078125,4133.7177734375,4164.8715820313,4104.7436523438,4108.0771484375,4056.5385742188,4078.7180175781,4069.4870605469,4048.3332519531,4007.0512695313,4101.5385742188,4057.8205566406,4061.41015625,20.0,33025.0
20,4124.615234375,4146.41015625,4128.7177734375,4161.0258789063,4097.9487304688,4104.7436523438,4066.0256347656,4085.6411132813,4071.9230957031,4045.0,4004.4870605469,4105.2563476563,4059.1025390625,4073.58984375,21.0,33025.0
21,4131.41015625,4149.8715820313,4125.1284179688,4160.5126953125,4094.6154785156,4096.41015625,4070.5129394531,4092.0512695313,4074.2307128906,4045.2563476563,4014.4870605469,4110.1284179688,4063.3332519531,4077.1794433594,22.0,33025.0
22,4122.1796875,4139.8715820313,4124.615234375,4151.5385742188,4091.6667480469,4107.5639648438,4081.794921875,4091.5385742188,4074.4870605469,4042.8205566406,4010.0,4106.1538085938,4057.9487304688,4060.5129394531,23.0,33025.0
23,4112.6923828125,4131.9228515625,4119.2309570313,4140.7690429688,4086.1538085938,4113.9741210938,4091.794921875,4091.6667480469,4078.3332519531,4044.8718261719,4001.6667480469,4102.1796875,4058.0769042969,4054.4870605469,24.0,33025.0
24,4108.7177734375,4123.8461914063,4105.8974609375,4137.5639648438,4085.0,4106.41015625,4081.1538085938,4085.7692871094,4073.3332519531,4042.5642089844,3996.794921875,4093.4614257813,4058.0769042969,4059.2307128906,25.0,33025.0
25,4107.4360351563,4126.1538085938,4106.5385742188,4136.41015625,4088.0769042969,4102.4360351563,4061.0256347656,4075.3845214844,4062.5642089844,4031.1538085938,3988.58984375,4088.58984375,4049.2307128906,4050.6411132813,26.0,33025.0
26,4104.3588867188,4134.7436523438,4112.5639648438,4135.1284179688,4092.6923828125,4097.0512695313,4045.5129394531,4072.5642089844,4061.794921875,4027.9487304688,3987.6923828125,4089.1025390625,4049.6154785156,4039.1025390625,27.0,33025.0
27,4105.1284179688,4128.58984375,4104.7436523438,4136.6665039063,4088.7180175781,4089.4870605469,4039.1025390625,4074.7436523438,4068.9743652344,4037.6923828125,3998.58984375,4088.4614257813,4062.0512695313,4045.3845214844,28.0,33025.0
28,4108.3334960938,4121.1538085938,4106.2822265625,4138.8461914063,4075.5129394531,4090.3845214844,4045.1281738281,4073.4614257813,4071.6667480469,4041.5385742188,4010.2563476563,4106.0258789063,4065.7692871094,4058.4614257813,29.0,33025.0
29,4106.0258789063,4125.7690429688,4119.3588867188,4138.58984375,4078.8461914063,4094.2307128906,4056.2819824219,4072.9487304688,4073.205078125,4042.4357910156,4022.3076171875,4142.9487304688,4065.7692871094,4059.7436523438,30.0,33025.0
30,4106.0258789063,4122.5639648438,4117.5639648438,4133.7177734375,4089.7436523438,4096.41015625,4065.0,4078.205078125,4081.9230957031,4052.5642089844,4037.1794433594,4172.4360351563,4077.0512695313,4060.6411132813,31.0,33025.0
31,4114.4873046875,4118.58984375,4110.1284179688,4131.9228515625,4079.8718261719,4097.8203125,4074.1025390625,4091.794921875,4096.0258789063,4063.3332519531,4051.794921875,4178.58984375,4090.0,4072.5642089844,32.0,33025.0
32,4122.1796875,4124.3588867188,4116.41015625,4135.2563476563,4069.4870605469,4096.5385742188,4079.3588867188,4107.5639648438,4108.0771484375,4071.0256347656,4067.5642089844,4165.6411132813,4100.2563476563,4077.6923828125,33.0,33025.0
33,4127.8203125,4127.4360351563,4124.4873046875,4136.794921875,4076.0256347656,4093.7180175781,4075.6411132813,4112.0512695313,4108.7177734375,4072.0512695313,4078.4614257813,4149.615234375,4106.9228515625,4081.794921875,34.0,33025.0
34,4131.9228515625,4127.6923828125,4126.0258789063,4138.205078125,4077.9487304688,4093.3332519531,4073.3332519531,4108.58984375,4099.4873046875,4064.3588867188,4072.5642089844,4149.7436523438,4100.6411132813,4093.8461914063,35.0,33025.0
35,4122.5639648438,4119.7436523438,4116.2822265625,4133.3334960938,4082.4357910156,4096.0258789063,4070.8974609375,4103.205078125,4092.9487304688,4054.1025390625,4050.7692871094,4145.384765625,4083.4614257813,4082.4357910156,36.0,33025.0
36,4105.5126953125,4103.205078125,4096.5385742188,4115.8974609375,4090.6411132813,4097.0512695313,4065.7692871094,4092.6923828125,4088.205078125,4043.4614257813,4028.0769042969,4120.7690429688,4068.8461914063,4051.0256347656,37.0,33025.0
37,4100.5126953125,4099.8715820313,4089.3588867188,4113.7177734375,4086.6667480469,4097.1796875,4066.9230957031,4079.4870605469,4079.3588867188,4035.6411132813,4017.9487304688,4117.6923828125,4064.7436523438,4042.5642089844,38.0,33025.0
38,4110.1284179688,4109.1025390625,4099.615234375,4131.2822265625,4086.41015625,4096.0258789063,4067.5642089844,4079.1025390625,4077.5642089844,4044.8718261719,4024.1025390625,4147.1796875,4068.8461914063,4053.3332519531,39.0,33025.0
39,4118.205078125,4111.9228515625,4104.1025390625,4132.9487304688,4091.9230957031,4093.58984375,4066.794921875,4097.6923828125,4096.0258789063,4064.6154785156,4041.2819824219,4173.7177734375,4080.5129394531,4061.2819824219,40.0,33025.0
40,4120.8974609375,4106.41015625,4106.41015625,4124.615234375,4091.794921875,4099.2309570313,4074.3588867188,4116.9228515625,4117.9487304688,4079.3588867188,4063.7180175781,4188.7177734375,4097.4360351563,4070.5129394531,41.0,33025.0
41,4119.615234375,4103.9741210938,4113.205078125,4123.9741210938,4089.6154785156,4105.384765625,4078.0769042969,4122.1796875,4122.8203125,4090.2563476563,4084.7436523438,4203.0771484375,4108.3334960938,4077.0512695313,42.0,33025.0
42,4118.9741210938,4106.9228515625,4110.0,4122.9487304688,4084.7436523438,4105.384765625,4075.2563476563,4120.7690429688,4121.41015625,4093.7180175781,4096.2822265625,4211.794921875,4111.2822265625,4077.6923828125,43.0,33025.0
43,4125.6411132813,4111.6665039063,4106.1538085938,4122.9487304688,4080.2563476563,4104.4873046875,4079.4870605469,4125.7690429688,4128.58984375,4095.7692871094,4100.6411132813,4210.5126953125,4115.7690429688,4083.58984375,44.0,33025.0
44,4125.6411132813,4110.0,4109.7436523438,4125.2563476563,4083.9743652344,4103.3334960938,4084.2307128906,4126.41015625,4129.3588867188,4096.2822265625,4098.0771484375,4203.4614257813,4117.8203125,4086.0256347656,45.0,33025.0
45,4113.8461914063,4100.1284179688,4104.3588867188,4121.5385742188,4088.58984375,4098.4614257813,4074.7436523438,4107.0512695313,4109.4873046875,4081.41015625,4080.5129394531,4184.3588867188,4101.794921875,4072.1794433594,46.0,33025.0
46,4110.384765625,4099.1025390625,4097.5639648438,4118.4614257813,4078.8461914063,4090.8974609375,4060.5129394531,4084.2307128906,4087.1794433594,4062.8205566406,4057.6923828125,4164.1025390625,4081.794921875,4058.9743652344,47.0,33025.0
47,4116.2822265625,4108.8461914063,4094.3588867188,4121.6665039063,4074.2307128906,4089.6154785156,4057.0512695313,4078.8461914063,4082.3076171875,4057.4357910156,4049.4870605469,4166.9228515625,4076.2819824219,4060.5129394531,48.0,33025.0
48,4119.1025390625,4110.7690429688,4096.794921875,4123.7177734375,4088.205078125,4093.0769042969,4062.4357910156,4083.0769042969,4083.58984375,4057.0512695313,4051.6667480469,4172.3076171875,4077.4357910156,4067.5642089844,49.0,33025.0
49,4119.2309570313,4107.3076171875,4110.6411132813,4124.1025390625,4100.6411132813,4099.615234375,4071.1538085938,4092.0512695313,4088.205078125,4060.1281738281,4058.3332519531,4151.6665039063,4083.8461914063,4078.58984375,50.0,33025.0
50,4126.0258789063,4109.7436523438,4114.1025390625,4127.4360351563,4097.4360351563,4102.6923828125,4076.5385742188,4108.4614257813,4102.0512695313,4074.2307128906,4077.0512695313,4134.4873046875,4099.4873046875,4094.7436523438,51.0,33025.0
51,4128.7177734375,4107.6923828125,4106.1538085938,4128.3334960938,4089.6154785156,4100.0,4074.4870605469,4116.5385742188,4112.8203125,4083.9743652344,4090.7692871094,4135.6411132813,4105.0,4100.0,52.0,33025.0
52,4120.8974609375,4096.9228515625,4106.6665039063,4121.41015625,4092.6923828125,4103.4614257813,4080.1281738281,4111.6665039063,4117.8203125,4085.5129394531,4083.58984375,4125.2563476563,4097.9487304688,4091.41015625,53.0,33025.0
53,4120.0,4089.6154785156,4113.58984375,4116.6665039063,4091.794921875,4109.2309570313,4089.2307128906,4113.3334960938,4124.7436523438,4089.4870605469,4080.5129394531,4118.3334960938,4100.7690429688,4093.8461914063,54.0,33025.0
54,4126.9228515625,4090.6411132813,4112.6923828125,4120.384765625,4077.3076171875,4106.1538085938,4083.3332519531,4113.0771484375,4120.0,4087.5642089844,4089.3588867188,4144.615234375,4108.205078125,4110.6411132813,55.0,33025.0
55,4122.1796875,4095.3845214844,4104.615234375,4123.3334960938,4072.1794433594,4105.1284179688,4077.1794433594,4096.41015625,4099.8715820313,4076.6667480469,4084.3588867188,4159.8715820313,4096.794921875,4113.3334960938,56.0,33025.0
56,4113.7177734375,4094.6154785156,4099.8715820313,4119.615234375,4079.8718261719,4105.384765625,4076.9230957031,4082.9487304688,4087.3076171875,4071.41015625,4070.2563476563,4141.1538085938,4085.6411132813,4095.6411132813,57.0,33025.0
57,4116.41015625,4091.6667480469,4103.0771484375,4119.3588867188,4082.6923828125,4096.0258789063,4070.2563476563,4088.8461914063,4091.0256347656,4074.7436523438,4078.58984375,4140.384765625,4091.6667480469,4088.205078125,58.0,33025.0
58,4122.5639648438,4092.5642089844,4105.8974609375,4123.0771484375,4078.58984375,4090.2563476563,4067.3076171875,4095.5129394531,4091.794921875,4075.5129394531,4092.1794433594,4158.8461914063,4095.2563476563,4100.6411132813,59.0,33025.0
59,4121.9228515625,4095.2563476563,4098.3334960938,4121.1538085938,4077.3076171875,4093.205078125,4068.8461914063,4090.0,4085.3845214844,4074.3588867188,4083.9743652344,4152.4360351563,4091.6667480469,4107.3076171875,60.0,33025.0
60,4117.8203125,4100.0,4098.205078125,4118.4614257813,4075.8974609375,4090.5129394531,4065.6411132813,4092.4357910156,4086.2819824219,4075.6411132813,4079.3588867188,4142.3076171875,4091.6667480469,4105.0,61.0,33025.0
61,4119.3588867188,4105.1284179688,4111.6665039063,4121.0258789063,4083.7180175781,4089.3588867188,4066.0256347656,4102.9487304688,4092.8205566406,4076.6667480469,4090.8974609375,4163.3334960938,4092.5642089844,4108.8461914063,62.0,33025.0
62,4118.8461914063,4103.3334960938,4111.41015625,4118.9741210938,4092.5642089844,4092.3076171875,4069.6154785156,4102.3076171875,4092.5642089844,4077.0512695313,4093.0769042969,4184.615234375,4092.5642089844,4115.6411132813,63.0,33025.0
63,4114.3588867188,4093.3332519531,4096.41015625,4107.1796875,4080.0,4088.9743652344,4067.4357910156,4092.9487304688,4090.3845214844,4073.7180175781,4080.3845214844,4177.0512695313,4092.5642089844,4114.615234375,64.0,33025.0
64,4111.5385742188,4090.5129394531,4089.8718261719,4104.3588867188,4068.9743652344,4089.2307128906,4066.41015625,4088.7180175781,4090.2563476563,4070.1281738281,4074.1025390625,4155.8974609375,4090.2563476563,4107.5639648438,65.0,33025.0
65,4103.3334960938,4092.5642089844,4094.6154785156,4111.6665039063,4080.3845214844,4092.5642089844,4064.8718261719,4090.0,4087.5642089844,4073.4614257813,4075.5129394531,4141.6665039063,4088.4614257813,4102.6923828125,66.0,33025.0
66,4097.1796875,4087.0512695313,4095.3845214844,4109.7436523438,4088.9743652344,4090.1281738281,4063.8461914063,4089.2307128906,4092.0512695313,4079.3588867188,4077.1794433594,4138.8461914063,4091.1538085938,4101.6665039063,67.0,33025.0
67,4100.6411132813,4084.3588867188,4092.3076171875,4105.6411132813,4084.8718261719,4090.6411132813,4068.4614257813,4094.4870605469,4102.0512695313,4079.4870605469,4077.1794433594,4142.1796875,4092.3076171875,4103.9741210938,68.0,33025.0
68,4106.0258789063,4088.58984375,4090.1281738281,4105.1284179688,4078.4614257813,4091.1538085938,4067.4357910156,4103.4614257813,4100.2563476563,4077.4357910156,4073.9743652344,4143.205078125,4088.9743652344,4106.6665039063,69.0,33025.0
69,4108.205078125,4089.6154785156,4089.2307128906,4098.58984375,4077.3076171875,4089.7436523438,4067.3076171875,4106.2822265625,4097.6923828125,4081.1538085938,4075.7692871094,4139.615234375,4089.8718261719,4106.1538085938,70.0,33025.0
70,4107.0512695313,4087.5642089844,4088.3332519531,4095.5129394531,4083.0769042969,4095.0,4075.6411132813,4106.0258789063,4104.7436523438,4087.3076171875,4078.4614257813,4136.5385742188,4093.3332519531,4104.8715820313,71.0,33025.0
71,4105.8974609375,4088.9743652344,4090.5129394531,4103.8461914063,4080.7692871094,4100.1284179688,4078.7180175781,4103.4614257813,4107.1796875,4089.3588867188,4075.6411132813,4141.1538085938,4092.0512695313,4104.615234375,72.0,33025.0
72,4104.4873046875,4086.9230957031,4095.7692871094,4108.9741210938,4079.2307128906,4097.1796875,4076.0256347656,4100.5126953125,4105.6411132813,4088.58984375,4074.2307128906,4149.615234375,4093.58984375,4105.8974609375,73.0,33025.0
73,4104.3588867188,4088.7180175781,4097.0512695313,4106.5385742188,4089.4870605469,4094.2307128906,4073.8461914063,4103.8461914063,4109.615234375,4090.7692871094,4079.8718261719,4157.0512695313,4102.9487304688,4108.8461914063,74.0,33025.0
74,4109.2309570313,4099.7436523438,4097.3076171875,4105.6411132813,4087.0512695313,4092.4357910156,4069.7436523438,4107.4360351563,4111.5385742188,4092.3076171875,4087.0512695313,4163.0771484375,4106.9228515625,4110.6411132813,75.0,33025.0
75,4113.205078125,4101.1538085938,4101.6665039063,4107.8203125,4077.3076171875,4090.0,4066.5385742188,4105.0,4107.4360351563,4089.6154785156,4090.6411132813,4153.4614257813,4103.8461914063,4110.2563476563,76.0,33025.0
76,4111.0258789063,4097.6923828125,4104.8715820313,4110.2563476563,4087.4357910156,4091.5385742188,4067.9487304688,4107.3076171875,4107.8203125,4090.7692871094,4092.0512695313,4133.3334960938,4105.5126953125,4108.4614257813,77.0,33025.0
77,4107.0512695313,4103.4614257813,4099.7436523438,4109.4873046875,4097.0512695313,4095.0,4067.8205566406,4108.0771484375,4111.6665039063,4093.0769042969,4089.8718261719,4127.0512695313,4107.3076171875,4107.1796875,78.0,33025.0
78,4108.8461914063,4108.9741210938,4094.1025390625,4106.0258789063,4090.6411132813,4094.7436523438,4066.794921875,4095.8974609375,4104.7436523438,4085.7692871094,4081.6667480469,4126.41015625,4102.0512695313,4107.1796875,79.0,33025.0
79,4112.8203125,4104.8715820313,4098.0771484375,4106.0258789063,4087.5642089844,4091.6667480469,4065.0,4087.4357910156,4090.6411132813,4075.7692871094,4073.205078125,4120.384765625,4094.2307128906,4106.6665039063,80.0,33025.0
80,4110.5126953125,4101.794921875,4097.9487304688,4106.2822265625,4087.5642089844,4091.0256347656,4060.6411132813,4093.205078125,4088.9743652344,4074.1025390625,4073.3332519531,4119.615234375,4092.5642089844,4106.0258789063,81.0,33025.0
81,4107.4360351563,4099.7436523438,4094.3588867188,4101.1538085938,4083.3332519531,4092.5642089844,4057.4357910156,4092.5642089844,4092.8205566406,4075.7692871094,4078.0769042969,4121.794921875,4094.4870605469,4106.41015625,82.0,33025.0
82,4103.4614257813,4093.58984375,4092.9487304688,4094.1025390625,4079.2307128906,4089.2307128906,4058.4614257813,4080.7692871094,4087.8205566406,4074.2307128906,4071.9230957031,4119.2309570313,4092.6923828125,4099.3588867188,83.0,33025.0
83,4099.7436523438,4090.5129394531,4091.2819824219,4091.6667480469,4077.1794433594,4085.8974609375,4059.8718261719,4082.1794433594,4087.4357910156,4074.3588867188,4058.58984375,4119.3588867188,4087.5642089844,4088.8461914063,84.0,33025.0
84,4102.3076171875,4091.41015625,4094.7436523438,4095.1281738281,4078.205078125,4089.1025390625,4058.205078125,4087.9487304688,4091.41015625,4073.9743652344,4058.205078125,4122.0512695313,4089.1025390625,4093.8461914063,85.0,33025.0
85,4102.4360351563,4092.5642089844,4097.5639648438,4097.4360351563,4077.9487304688,4084.8718261719,4051.41015625,4078.205078125,4083.58984375,4073.205078125,4074.3588867188,4122.1796875,4096.794921875,4105.2563476563,86.0,33025.0
86,4101.0258789063,4091.2819824219,4096.2822265625,4094.8718261719,4072.8205566406,4072.5642089844,4044.8718261719,4075.5129394531,4081.794921875,4080.7692871094,4090.5129394531,4124.3588867188,4107.6923828125,4106.5385742188,87.0,33025.0
87,4101.9228515625,4086.5385742188,4093.205078125,4091.1538085938,4072.6923828125,4075.1281738281,4048.58984375,4089.3588867188,4096.794921875,4089.4870605469,4100.5126953125,4128.9741210938,4118.4614257813,4106.0258789063,88.0,33025.0
88,4101.2822265625,4082.5642089844,4091.6667480469,4086.5385742188,4078.3332519531,4089.2307128906,4060.0,4096.5385742188,4106.9228515625,4096.794921875,4113.9741210938,4136.1538085938,4123.205078125,4113.4614257813,89.0,33025.0
89,4100.384765625,4079.3588867188,4091.794921875,4078.9743652344,4078.9743652344,4093.7180175781,4066.6667480469,4098.4614257813,4109.1025390625,4104.3588867188,4129.615234375,4141.794921875,4126.9228515625,4119.4873046875,90.0,33025.0
90,4101.794921875,4076.0256347656,4088.7180175781,4072.0512695313,4079.6154785156,4090.6411132813,4065.7692871094,4112.5639648438,4118.3334960938,4112.5639648438,4148.58984375,4147.5639648438,4140.5126953125,4124.2309570313,91.0,33025.0
91,4110.2563476563,4081.41015625,4091.9230957031,4076.6667480469,4086.41015625,4091.41015625,4070.1281738281,4125.5126953125,4135.6411132813,4128.205078125,4174.3588867188,4163.205078125,4161.1538085938,4139.615234375,92.0,33025.0
92,4113.0771484375,4087.5642089844,4099.3588867188,4082.0512695313,4092.8205566406,4093.205078125,4074.6154785156,4127.5639648438,4141.41015625,4138.7177734375,4190.0,4176.794921875,4173.3334960938,4151.5385742188,93.0,33025.0
93,4103.8461914063,4079.8718261719,4093.3332519531,4072.6923828125,4091.5385742188,4092.0512695313,4067.0512695313,4121.9228515625,4131.2822265625,4131.41015625,4191.41015625,4173.8461914063,4168.9741210938,4145.7690429688,94.0,33025.0
94,4100.384765625,4073.3332519531,4085.1281738281,4065.1281738281,4089.6154785156,4096.5385742188,4065.1281738281,4118.8461914063,4124.2309570313,4122.5639648438,4190.1284179688,4170.7690429688,4159.8715820313,4137.4360351563,95.0,33025.0
95,4103.205078125,4076.0256347656,4085.6411132813,4070.5129394531,4093.58984375,4105.0,4075.2563476563,4120.7690429688,4127.6923828125,4124.8715820313,4183.3334960938,4174.2309570313,4155.7690429688,4138.205078125,96.0,33025.0
96,4103.205078125,4077.5642089844,4084.3588867188,4075.6411132813,4096.1538085938,4106.794921875,4081.0256347656,4120.1284179688,4132.3076171875,4126.41015625,4177.1796875,4168.4614257813,4157.5639648438,4137.4360351563,97.0,33025.0
97,4102.4360351563,4077.9487304688,4083.3332519531,4075.2563476563,4093.8461914063,4106.2822265625,4083.4614257813,4129.1025390625,4137.3076171875,4128.4614257813,4182.9487304688,4155.6411132813,4162.0512695313,4137.0512695313,98.0,33025.0
98,4102.4360351563,4077.4357910156,4086.5385742188,4075.7692871094,4091.1538085938,4106.0258789063,4088.3332519531,4139.1025390625,4144.8715820313,4131.41015625,4184.7436523438,4155.2563476563,4166.0258789063,4139.2309570313,99.0,33025.0
99,4104.2309570313,4075.7692871094,4082.5642089844,4070.6411132813,4091.2819824219,4097.0512695313,4083.205078125,4128.3334960938,4136.794921875,4125.8974609375,4169.4873046875,4159.1025390625,4159.615234375,4133.0771484375,100.0,33025.0
100,4103.8461914063,4083.0769042969,4075.7692871094,4060.5129394531,4088.58984375,4089.8718261719,4078.205078125,4117.4360351563,4125.1284179688,4120.5126953125,4157.0512695313,4149.4873046875,4146.2822265625,4123.58984375,101.0,33025.0
101,4098.3334960938,4083.8461914063,4075.7692871094,4057.0512695313,4088.8461914063,4094.6154785156,4081.41015625,4121.794921875,4124.4873046875,4114.1025390625,4154.7436523438,4138.0771484375,4144.1025390625,4120.6411132813,102.0,33025.0
102,4097.9487304688,4078.0769042969,4079.3588867188,4061.0256347656,4093.4614257813,4094.8718261719,4078.9743652344,4125.384765625,4124.1025390625,4109.8715820313,4155.1284179688,4146.9228515625,4150.6411132813,4124.2309570313,103.0,33025.0
103,4097.9487304688,4078.0769042969,4079.3588867188,4061.0256347656,4093.4614257813,4094.8718261719,4078.9743652344,4125.384765625,4124.1025390625,4109.8715820313,4155.1284179688,4146.9228515625,4150.6411132813,4124.2309570313,104.0,33025.0
104,4100.7690429688,4087.1794433594,4081.2819824219,4063.0769042969,4082.8205566406,4087.9487304688,4074.2307128906,4123.4614257813,4128.0771484375,4115.5126953125,4153.4614257813,4158.7177734375,4153.3334960938,4127.9487304688,105.0,33025.0
105,4099.615234375,4088.7180175781,4082.3076171875,4058.58984375,4073.8461914063,4088.9743652344,4077.0512695313,4125.8974609375,4138.7177734375,4119.7436523438,4154.3588867188,4149.4873046875,4153.7177734375,4128.0771484375,106.0,33025.0
106,4097.0512695313,4082.1794433594,4077.3076171875,4060.3845214844,4089.2307128906,4094.3588867188,4078.8461914063,4124.4873046875,4139.3588867188,4114.8715820313,4160.8974609375,4139.4873046875,4149.3588867188,4128.4614257813,107.0,33025.0
107,4096.9228515625,4089.1025390625,4074.2307128906,4067.4357910156,4101.2822265625,4093.9743652344,4072.4357910156,4115.6411132813,4131.0258789063,4110.6411132813,4163.58984375,4141.9228515625,4143.4614257813,4126.794921875,108.0,33025.0
108,4096.41015625,4087.3076171875,4083.3332519531,4065.1281738281,4091.5385742188,4091.9230957031,4065.6411132813,4112.3076171875,4128.7177734375,4116.0258789063,4162.4360351563,4140.384765625,4147.9487304688,4120.6411132813,109.0,33025.0
109,4097.1796875,4075.7692871094,4091.9230957031,4063.0769042969,4087.0512695313,4091.5385742188,4064.3588867188,4118.9741210938,4124.7436523438,4121.1538085938,4169.2309570313,4145.0,4152.6923828125,4126.0258789063,110.0,33025.0
110,4104.3588867188,4082.0512695313,4087.5642089844,4067.1794433594,4095.1281738281,4091.6667480469,4066.5385742188,4120.7690429688,4116.1538085938,4114.7436523438,4171.2822265625,4155.8974609375,4145.1284179688,4138.8461914063,111.0,33025.0
111,4100.1284179688,4084.6154785156,4075.6411132813,4063.7180175781,4096.0258789063,4091.794921875,4066.41015625,4109.8715820313,4113.8461914063,4105.1284179688,4153.3334960938,4146.794921875,4137.6923828125,4129.1025390625,112.0,33025.0
112,4083.9743652344,4073.8461914063,4069.1025390625,4057.9487304688,4090.1281738281,4090.8974609375,4063.4614257813,4105.0,4112.4360351563,4106.1538085938,4138.3334960938,4130.0,4134.8715820313,4107.6923828125,113.0,33025.0
113,4079.7436523438,4076.0256347656,4071.5385742188,4060.3845214844,4088.9743652344,4091.2819824219,4067.6923828125,4106.0258789063,4111.1538085938,4107.5639648438,4134.1025390625,4121.2822265625,4125.8974609375,4103.3334960938,114.0,33025.0
114,4081.0256347656,4077.6923828125,4070.1281738281,4058.7180175781,4085.3845214844,4091.794921875,4076.6667480469,4103.0771484375,4115.2563476563,4102.6923828125,4127.1796875,4102.3076171875,4118.0771484375,4106.1538085938,115.0,33025.0
115,4079.8718261719,4076.1538085938,4070.3845214844,4058.8461914063,4076.0256347656,4091.9230957031,4081.6667480469,4108.0771484375,4123.8461914063,4106.794921875,4132.1796875,4095.3845214844,4127.0512695313,4107.3076171875,116.0,33025.0
116,4080.1281738281,4082.9487304688,4073.3332519531,4064.2307128906,4078.58984375,4092.1794433594,4080.5129394531,4111.794921875,4125.6411132813,4111.1538085938,4143.0771484375,4112.5639648438,4136.0258789063,4109.3588867188,117.0,33025.0
117,4088.205078125,4084.1025390625,4072.6923828125,4060.7692871094,4089.2307128906,4089.8718261719,4077.8205566406,4107.5639648438,4120.7690429688,4108.8461914063,4141.6665039063,4117.6923828125,4130.7690429688,4107.3076171875,118.0,33025.0
118,4093.3332519531,4080.0,4073.9743652344,4057.8205566406,4089.1025390625,4085.0,4075.5129394531,4103.0771484375,4115.0,4102.8203125,4137.0512695313,4108.4614257813,4123.9741210938,4105.5126953125,119.0,33025.0
119,4087.8205566406,4081.41015625,4074.2307128906,4063.58984375,4088.3332519531,4082.5642089844,4075.0,4098.7177734375,4108.7177734375,4095.5129394531,4135.1284179688,4108.4614257813,4124.2309570313,4108.9741210938,120.0,33025.0
120,4084.4870605469,4080.8974609375,4070.8974609375,4063.8461914063,4091.0256347656,4086.0256347656,4077.6923828125,4097.6923828125,4105.8974609375,4095.6411132813,4128.0771484375,4109.3588867188,4124.2309570313,4106.1538085938,121.0,33025.0
121,4086.5385742188,4076.2819824219,4071.41015625,4058.0769042969,4084.2307128906,4090.3845214844,4081.0256347656,4104.3588867188,4112.9487304688,4102.5639648438,4123.205078125,4105.7690429688,4123.4614257813,4102.3076171875,122.0,33025.0
122,4091.41015625,4077.4357910156,4071.9230957031,4059.3588867188,4082.3076171875,4092.3076171875,4087.5642089844,4113.3334960938,4124.1025390625,4108.3334960938,4127.3076171875,4110.384765625,4127.4360351563,4112.5639648438,123.0,33025.0
123,4092.6923828125,4077.1794433594,4065.7692871094,4062.9487304688,4086.794921875,4093.58984375,4095.3845214844,4113.0771484375,4123.58984375,4105.0,4125.5126953125,4110.0,4123.9741210938,4114.4873046875,124.0,33025.0
124,4085.3845214844,4074.4870605469,4059.4870605469,4058.205078125,4079.1025390625,4090.8974609375,4092.3076171875,4106.1538085938,4112.0512695313,4094.1025390625,4117.6923828125,4103.3334960938,4112.3076171875,4096.5385742188,125.0,33025.0
125,4080.0,4076.41015625,4061.1538085938,4055.0,4074.3588867188,4083.4614257813,4078.4614257813,4099.1025390625,4104.7436523438,4088.205078125,4116.2822265625,4104.8715820313,4109.2309570313,4093.58984375,126.0,33025.0
126,4084.1025390625,4078.7180175781,4068.7180175781,4058.9743652344,4079.3588867188,4082.8205566406,4075.0,4093.8461914063,4104.615234375,4093.58984375,4120.2563476563,4107.1796875,4115.5126953125,4105.384765625,127.0,33025.0
127,4088.205078125,4081.5385742188,4074.6154785156,4062.0512695313,4085.0,4090.2563476563,4081.6667480469,4096.2822265625,4112.3076171875,4097.5639648438,4124.7436523438,4109.1025390625,4123.205078125,4103.8461914063,128.0,33025.0
128,4084.7436523438,4079.2307128906,4072.1794433594,4059.2307128906,4085.0,4091.5385742188,4082.1794433594,4103.58984375,4115.7690429688,4091.1538085938,4117.3076171875,4109.1025390625,4118.58984375,4098.58984375,129.0,33025.0
129,4084.2307128906,4076.6667480469,4068.9743652344,4059.1025390625,4083.205078125,4088.8461914063,4083.4614257813,4107.9487304688,4113.4614257813,4087.5642089844,4110.8974609375,4106.9228515625,4110.8974609375,4104.8715820313,130.0,33025.0
130,4090.6411132813,4079.8718261719,4073.205078125,4062.3076171875,4089.7436523438,4094.3588867188,4092.6923828125,4104.7436523438,4117.3076171875,4094.6154785156,4122.1796875,4110.0,4115.7690429688,4108.7177734375,131.0,33025.0
131,4090.6411132813,4081.0256347656,4074.2307128906,4059.6154785156,4094.6154785156,4099.8715820313,4093.58984375,4101.41015625,4120.384765625,4099.4873046875,4133.0771484375,4119.7436523438,4123.9741210938,4107.8203125,132.0,33025.0
132,4082.0512695313,4076.794921875,4066.41015625,4057.4357910156,4085.3845214844,4091.9230957031,4081.41015625,4102.5639648438,4117.5639648438,4098.3334960938,4131.0258789063,4127.0512695313,4124.8715820313,4113.0771484375,133.0,33025.0
133,4082.3076171875,4073.7180175781,4064.8718261719,4060.6411132813,4078.9743652344,4087.5642089844,4079.1025390625,4104.2309570313,4120.384765625,4099.8715820313,4126.0258789063,4126.41015625,4122.0512695313,4120.0,134.0,33025.0
134,4089.7436523438,4075.1281738281,4071.9230957031,4061.9230957031,4090.6411132813,4098.8461914063,4092.4357910156,4108.3334960938,4127.4360351563,4100.384765625,4126.2822265625,4122.3076171875,4122.0512695313,4124.2309570313,135.0,33025.0
135,4094.3588867188,4082.6923828125,4074.3588867188,4064.3588867188,4098.3334960938,4103.0771484375,4095.7692871094,4106.5385742188,4120.1284179688,4092.6923828125,4124.1025390625,4124.2309570313,4122.0512695313,4124.615234375,136.0,33025.0
136,4097.6923828125,4091.9230957031,4076.41015625,4072.1794433594,4093.58984375,4092.8205566406,4083.9743652344,4099.2309570313,4113.58984375,4090.2563476563,4127.3076171875,4135.0,4122.9487304688,4122.9487304688,137.0,33025.0
137,4096.794921875,4089.4870605469,4081.794921875,4074.7436523438,4091.5385742188,4092.3076171875,4081.5385742188,4099.2309570313,4119.1025390625,4098.8461914063,4138.0771484375,4144.3588867188,4125.5126953125,4125.0,138.0,33025.0
138,4094.2307128906,4080.8974609375,4081.5385742188,4070.7692871094,4094.6154785156,4101.6665039063,4094.3588867188,4108.58984375,4119.615234375,4099.1025390625,4135.384765625,4137.6923828125,4125.6411132813,4127.6923828125,139.0,33025.0
139,4091.2819824219,4082.8205566406,4074.8718261719,4066.5385742188,4090.2563476563,4100.5126953125,4097.8203125,4110.6411132813,4114.7436523438,4092.3076171875,4125.0,4125.0,4122.8203125,4125.384765625,140.0,33025.0
140,4087.5642089844,4080.5129394531,4070.5129394531,4058.205078125,4081.6667480469,4090.2563476563,4083.9743652344,4100.1284179688,4112.1796875,4091.0256347656,4120.7690429688,4129.1025390625,4119.4873046875,4120.0,141.0,33025.0
141,4091.6667480469,4074.3588867188,4071.794921875,4059.4870605469,4084.8718261719,4089.6154785156,4080.5129394531,4096.1538085938,4114.615234375,4092.0512695313,4122.0512695313,4136.0258789063,4119.4873046875,4123.4614257813,142.0,33025.0
142,4098.9741210938,4081.5385742188,4075.8974609375,4072.6923828125,4093.4614257813,4100.1284179688,4096.9228515625,4110.1284179688,4123.58984375,4098.4614257813,4128.8461914063,4123.3334960938,4121.5385742188,4134.2309570313,143.0,33025.0
143,4099.1025390625,4087.8205566406,4078.58984375,4076.5385742188,4092.6923828125,4107.9487304688,4106.794921875,4120.7690429688,4130.1284179688,4104.8715820313,4135.384765625,4111.9228515625,4125.1284179688,4137.0512695313,144.0,33025.0
144,4096.5385742188,4087.0512695313,4079.1025390625,4073.7180175781,4091.2819824219,4103.3334960938,4103.9741210938,4115.1284179688,4127.5639648438,4101.2822265625,4132.9487304688,4118.7177734375,4129.8715820313,4133.7177734375,145.0,33025.0
145,4100.5126953125,4087.1794433594,4081.9230957031,4073.9743652344,4093.205078125,4096.5385742188,4101.5385742188,4110.0,4124.2309570313,4093.58984375,4127.9487304688,4124.3588867188,4129.7436523438,4135.8974609375,146.0,33025.0
146,4103.4614257813,4083.7180175781,4083.58984375,4070.7692871094,4091.0256347656,4095.1281738281,4096.41015625,4108.58984375,4120.7690429688,4091.5385742188,4125.5126953125,4121.41015625,4123.3334960938,4139.1025390625,147.0,33025.0
147,4097.3076171875,4081.1538085938,4077.9487304688,4071.0256347656,4092.0512695313,4097.3076171875,4090.5129394531,4107.3076171875,4116.0258789063,4093.0769042969,4127.6923828125,4119.7436523438,4122.5639648438,4137.3076171875,148.0,33025.0
148,4096.1538085938,4089.1025390625,4077.6923828125,4082.0512695313,4096.41015625,4100.1284179688,4098.58984375,4116.794921875,4122.6923828125,4096.2822265625,4137.3076171875,4125.384765625,4132.1796875,4139.3588867188,149.0,33025.0
149,4100.5126953125,4095.3845214844,4080.0,4084.4870605469,4097.0512695313,4103.7177734375,4104.2309570313,4122.3076171875,4129.3588867188,4098.0771484375,4137.8203125,4123.58984375,4134.2309570313,4137.6923828125,150.0,33025.0
150,4099.3588867188,4089.3588867188,4078.3332519531,4076.41015625,4092.4357910156,4104.3588867188,4098.205078125,4110.6411132813,4118.3334960938,4091.0256347656,4121.6665039063,4107.0512695313,4123.58984375,4126.41015625,151.0,33025.0
151,4096.6665039063,4084.7436523438,4077.0512695313,4077.0512695313,4084.7436523438,4097.8203125,4094.1025390625,4104.3588867188,4111.41015625,4086.794921875,4117.1796875,4109.7436523438,4120.384765625,4127.5639648438,152.0,33025.0
152,4095.7692871094,4082.8205566406,4074.6154785156,4081.1538085938,4092.3076171875,4098.7177734375,4095.2563476563,4108.8461914063,4119.3588867188,4092.6923828125,4126.1538085938,4128.58984375,4125.384765625,4135.384765625,153.0,33025.0
153,4092.9487304688,4081.794921875,4077.9487304688,4077.3076171875,4107.1796875,4103.4614257813,4095.8974609375,4101.794921875,4115.5126953125,4094.2307128906,4125.0,4120.7690429688,4123.58984375,4127.6923828125,154.0,33025.0
154,4087.1794433594,4082.6923828125,4080.7692871094,4072.8205566406,4096.6665039063,4096.41015625,4089.8718261719,4095.8974609375,4103.8461914063,4090.1281738281,4120.1284179688,4100.5126953125,4119.3588867188,4116.6665039063,155.0,33025.0
155,4086.0256347656,4079.1025390625,4070.8974609375,4072.5642089844,4075.8974609375,4088.9743652344,4085.6411132813,4101.794921875,4108.7177734375,4089.3588867188,4120.1284179688,4102.0512695313,4119.2309570313,4121.9228515625,156.0,33025.0
156,4093.7180175781,4079.6154785156,4070.6411132813,4075.1281738281,4083.7180175781,4092.3076171875,4088.9743652344,4106.1538085938,4119.615234375,4092.9487304688,4121.9228515625,4114.4873046875,4125.1284179688,4132.4360351563,157.0,33025.0
157,4098.0771484375,4087.3076171875,4084.8718261719,4077.3076171875,4097.9487304688,4095.5129394531,4092.9487304688,4110.6411132813,4123.8461914063,4097.1796875,4124.2309570313,4120.0,4131.0258789063,4137.5639648438,158.0,33025.0
158,4098.8461914063,4091.1538085938,4089.4870605469,4080.1281738281,4093.9743652344,4096.2822265625,4092.0512695313,4115.1284179688,4125.8974609375,4098.0771484375,4128.0771484375,4122.6923828125,4132.5639648438,4140.1284179688,159.0,33025.0
159,4101.1538085938,4092.1794433594,4088.4614257813,4088.4614257813,4091.5385742188,4098.205078125,4091.41015625,4108.9741210938,4118.8461914063,4092.6923828125,4129.7436523438,4124.615234375,4131.1538085938,4140.2563476563,160.0,33025.0
160,4100.7690429688,4100.0,4091.41015625,4092.8205566406,4094.8718261719,4095.0,4091.794921875,4106.41015625,4112.5639648438,4089.3588867188,4126.1538085938,4121.1538085938,4129.2309570313,4142.9487304688,161.0,33025.0
161,4101.0258789063,4099.3588867188,4091.6667480469,4087.6923828125,4093.8461914063,4092.3076171875,4091.0256347656,4115.5126953125,4119.3588867188,4094.7436523438,4124.7436523438,4122.4360351563,4126.5385742188,4143.205078125,162.0,33025.0
162,4095.7692871094,4082.6923828125,4088.7180175781,4083.9743652344,4090.7692871094,4093.3332519531,4088.4614257813,4115.8974609375,4123.7177734375,4098.205078125,4128.4614257813,4140.5126953125,4125.5126953125,4138.9741210938,163.0,33025.0
163,4088.7180175781,4078.9743652344,4082.9487304688,4085.8974609375,4088.8461914063,4092.8205566406,4081.794921875,4105.0,4116.2822265625,4093.4614257813,4127.1796875,4142.6923828125,4126.0258789063,4137.9487304688,164.0,33025.0
164,4092.9487304688,4090.1281738281,4076.9230957031,4087.4357910156,4090.1281738281,4093.205078125,4081.41015625,4101.9228515625,4108.0771484375,4088.205078125,4119.2309570313,4113.0771484375,4120.1284179688,4136.41015625,165.0,33025.0
165,4099.8715820313,4093.58984375,4082.6923828125,4089.6154785156,4093.58984375,4093.3332519531,4085.7692871094,4107.6923828125,4106.9228515625,4088.205078125,4118.8461914063,4105.7690429688,4115.8974609375,4131.1538085938,166.0,33025.0
166,4099.4873046875,4091.5385742188,4093.9743652344,4092.3076171875,4092.1794433594,4090.5129394531,4083.7180175781,4110.384765625,4114.615234375,4091.1538085938,4124.7436523438,4125.2563476563,4119.615234375,4126.6665039063,167.0,33025.0
167,4096.6665039063,4091.6667480469,4092.5642089844,4089.2307128906,4088.4614257813,4090.5129394531,4083.3332519531,4108.8461914063,4121.9228515625,4093.0769042969,4124.2309570313,4129.4873046875,4124.1025390625,4125.8974609375,168.0,33025.0
168,4101.0258789063,4093.3332519531,4085.6411132813,4088.9743652344,4092.3076171875,4096.2822265625,4092.0512695313,4107.4360351563,4116.0258789063,4092.6923828125,4122.9487304688,4124.615234375,4124.2309570313,4132.9487304688,169.0,33025.0
169,4098.9741210938,4090.1281738281,4082.1794433594,4090.8974609375,4092.6923828125,4096.9228515625,4094.6154785156,4102.9487304688,4103.9741210938,4085.6411132813,4119.4873046875,4115.384765625,4116.41015625,4137.3076171875,170.0,33025.0
170,4085.8974609375,4081.9230957031,4075.8974609375,4081.6667480469,4085.0,4090.8974609375,4086.9230957031,4095.1281738281,4096.1538085938,4076.5385742188,4108.0771484375,4097.6923828125,4107.1796875,4120.8974609375,171.0,33025.0
171,4085.8974609375,4078.4614257813,4076.0256347656,4072.8205566406,4081.9230957031,4089.2307128906,4083.3332519531,4091.5385742188,4094.6154785156,4074.8718261719,4103.8461914063,4096.0258789063,4104.1025390625,4106.6665039063,172.0,33025.0
172,4096.5385742188,4086.6667480469,4083.9743652344,4080.6411132813,4086.9230957031,4091.2819824219,4083.9743652344,4092.1794433594,4091.9230957031,4072.6923828125,4104.3588867188,4108.7177734375,4104.8715820313,4117.0512695313,173.0,33025.0
173,4098.58984375,4094.1025390625,4084.7436523438,4088.3332519531,4090.8974609375,4090.8974609375,4082.4357910156,4091.1538085938,4086.794921875,4069.7436523438,4098.8461914063,4107.9487304688,4102.8203125,4127.0512695313,174.0,33025.0
174,4089.8718261719,4086.794921875,4084.3588867188,4080.5129394531,4091.0256347656,4091.41015625,4083.58984375,4097.1796875,4094.1025390625,4073.8461914063,4098.58984375,4103.7177734375,4103.0771484375,4121.9228515625,175.0,33025.0
175,4085.7692871094,4080.3845214844,4083.205078125,4079.7436523438,4090.3845214844,4092.4357910156,4086.0256347656,4106.5385742188,4109.2309570313,4078.7180175781,4105.5126953125,4107.3076171875,4107.6923828125,4118.8461914063,176.0,33025.0
176,4094.7436523438,4086.5385742188,4081.2819824219,4093.58984375,4091.9230957031,4089.7436523438,4083.4614257813,4103.8461914063,4112.1796875,4080.8974609375,4112.0512695313,4102.0512695313,4109.615234375,4124.3588867188,177.0,33025.0
177,4101.6665039063,4090.0,4088.3332519531,4093.3332519531,4092.9487304688,4090.8974609375,4085.3845214844,4100.7690429688,4112.9487304688,4086.6667480469,4120.0,4111.0258789063,4115.8974609375,4132.8203125,178.0,33025.0
178,4102.0512695313,4091.9230957031,4097.3076171875,4084.3588867188,4090.3845214844,4094.4870605469,4093.8461914063,4114.4873046875,4124.2309570313,4093.58984375,4126.5385742188,4140.0,4128.3334960938,4142.9487304688,179.0,33025.0
179,4105.0,4103.9741210938,4094.1025390625,4097.6923828125,4091.41015625,4092.6923828125,4091.794921875,4128.3334960938,4130.8974609375,4091.794921875,4127.8203125,4146.5385742188,4133.0771484375,4142.8203125,180.0,33025.0
180,4101.2822265625,4104.615234375,4090.2563476563,4112.9487304688,4092.9487304688,4088.9743652344,4081.0256347656,4117.6923828125,4120.1284179688,4082.5642089844,4121.5385742188,4126.6665039063,4123.8461914063,4129.4873046875,181.0,33025.0
181,4091.6667480469,4082.3076171875,4094.1025390625,4101.41015625,4090.1281738281,4089.7436523438,4080.5129394531,4098.7177734375,4104.2309570313,4070.5129394531,4107.0512695313,4112.9487304688,4109.7436523438,4118.0771484375,182.0,33025.0
182,4093.205078125,4077.6923828125,4092.4357910156,4085.1281738281,4092.0512695313,4091.6667480469,4085.8974609375,4099.3588867188,4104.1025390625,4067.1794433594,4102.9487304688,4112.1796875,4105.2563476563,4121.1538085938,183.0,33025.0
183,4099.4873046875,4092.1794433594,4089.7436523438,4087.8205566406,4095.5129394531,4092.5642089844,4087.4357910156,4109.1025390625,4111.9228515625,4068.9743652344,4108.58984375,4112.1796875,4111.6665039063,4130.5126953125,184.0,33025.0
184,4095.7692871094,4092.1794433594,4094.6154785156,4098.7177734375,4089.7436523438,4093.3332519531,4088.3332519531,4101.5385742188,4103.0771484375,4060.1281738281,4096.9228515625,4105.384765625,4108.3334960938,4122.3076171875,185.0,33025.0
185,4094.6154785156,4093.9743652344,4103.0771484375,4111.0258789063,4092.8205566406,4093.4614257813,4087.5642089844,4090.8974609375,4092.0512695313,4055.0,4086.41015625,4099.3588867188,4098.9741210938,4110.1284179688,186.0,33025.0
186,4104.7436523438,4110.7690429688,4118.58984375,4124.3588867188,4106.794921875,4093.9743652344,4086.6667480469,4094.1025390625,4097.3076171875,4058.9743652344,4094.2307128906,4104.3588867188,4103.3334960938,4115.8974609375,187.0,33025.0
187,4108.58984375,4116.1538085938,4135.8974609375,4128.7177734375,4104.8715820313,4091.794921875,4082.9487304688,4096.1538085938,4099.4873046875,4057.1794433594,4091.6667480469,4106.9228515625,4108.4614257813,4127.0512695313,188.0,33025.0
188,4107.4360351563,4109.7436523438,4134.3588867188,4128.3334960938,4097.5639648438,4087.8205566406,4070.8974609375,4090.2563476563,4094.3588867188,4051.794921875,4076.0256347656,4106.6665039063,4097.9487304688,4127.5639648438,189.0,33025.0
189,4110.0,4116.794921875,4128.3334960938,4136.5385742188,4094.3588867188,4085.6411132813,4063.8461914063,4082.6923828125,4090.7692871094,4048.58984375,4063.7180175781,4107.4360351563,4082.5642089844,4115.1284179688,190.0,33025.0
190,4105.0,4127.8203125,4133.8461914063,4148.0771484375,4090.7692871094,4087.5642089844,4069.1025390625,4075.2563476563,4083.58984375,4041.2819824219,4047.3076171875,4094.1025390625,4074.3588867188,4098.3334960938,191.0,33025.0
191,4101.6665039063,4129.7436523438,4140.7690429688,4155.2563476563,4091.794921875,4089.8718261719,4075.5129394531,4077.3076171875,4078.7180175781,4034.2307128906,4032.6923828125,4082.3076171875,4071.6667480469,4094.6154785156,192.0,33025.0
192,4110.1284179688,4132.0512695313,4146.0258789063,4158.58984375,4092.5642089844,4090.7692871094,4078.9743652344,4089.6154785156,4082.5642089844,4036.6667480469,4032.9487304688,4089.7436523438,4074.7436523438,4107.4360351563,193.0,33025.0
193,4114.8715820313,4136.9228515625,4148.3334960938,4157.9487304688,4092.5642089844,4090.1281738281,4079.4870605469,4090.5129394531,4082.6923828125,4036.0256347656,4033.9743652344,4094.2307128906,4073.7180175781,4113.0771484375,194.0,33025.0
194,4114.1025390625,4139.3588867188,4145.384765625,4155.0,4100.7690429688,4089.7436523438,4071.6667480469,4074.8718261719,4073.4614257813,4029.7436523438,4026.794921875,4088.58984375,4062.4357910156,4107.0512695313,195.0,33025.0
195,4111.794921875,4135.6411132813,4139.615234375,4155.384765625,4109.2309570313,4096.6665039063,4075.5129394531,4071.9230957031,4070.7692871094,4029.1025390625,4026.794921875,4088.9743652344,4061.2819824219,4107.0512695313,196.0,33025.0
196,4111.1538085938,4132.1796875,4140.0,4153.8461914063,4107.8203125,4102.8203125,4093.9743652344,4088.9743652344,4085.3845214844,4037.8205566406,4039.6154785156,4095.8974609375,4074.1025390625,4109.8715820313,197.0,33025.0
197,4111.9228515625,4129.3588867188,4138.205078125,4145.0,4104.615234375,4098.4614257813,4095.0,4099.2309570313,4095.7692871094,4044.6154785156,4045.5129394531,4103.7177734375,4079.6154785156,4108.0771484375,198.0,33025.0
198,4107.9487304688,4127.5639648438,4132.1796875,4142.6923828125,4101.2822265625,4088.3332519531,4079.6154785156,4093.0769042969,4086.1538085938,4038.4614257813,4038.3332519531,4109.4873046875,4073.9743652344,4107.1796875,199.0,33025.0
199,4110.6411132813,4134.3588867188,4136.6665039063,4154.1025390625,4101.6665039063,4086.5385742188,4072.0512695313,4088.0769042969,4081.41015625,4035.8974609375,4037.1794433594,4116.5385742188,4074.1025390625,4110.1284179688,200.0,33025.0
200,4117.0512695313,4145.0,4137.6923828125,4156.6665039063,4103.8461914063,4088.3332519531,4072.4357910156,4092.8205566406,4094.1025390625,4044.8718261719,4045.1281738281,4123.58984375,4078.9743652344,4112.0512695313,201.0,33025.0
201,4111.794921875,4140.0,4128.3334960938,4142.6923828125,4100.2563476563,4091.1538085938,4080.1281738281,4098.205078125,4095.5129394531,4044.3588867188,4038.4614257813,4113.58984375,4071.794921875,4104.615234375,202.0,33025.0
202,4097.3076171875,4124.3588867188,4115.7690429688,4128.9741210938,4095.8974609375,4100.0,4090.6411132813,4091.2819824219,4079.8718261719,4030.6411132813,4020.5129394531,4091.41015625,4058.58984375,4086.1538085938,203.0,33025.0
203,4088.9743652344,4119.2309570313,4103.9741210938,4124.2309570313,4092.3076171875,4104.4873046875,4095.1281738281,4078.205078125,4074.8718261719,4028.7180175781,4020.5129394531,4087.4357910156,4059.6154785156,4073.9743652344,204.0,33025.0
204,4100.0,4121.41015625,4107.9487304688,4129.8715820313,4097.0512695313,4102.0512695313,4093.58984375,4077.3076171875,4082.5642089844,4037.5642089844,4040.8974609375,4106.2822265625,4076.9230957031,4089.7436523438,205.0,33025.0
205,4115.384765625,4130.7690429688,4131.0258789063,4145.7690429688,4109.7436523438,4096.1538085938,4084.1025390625,4086.9230957031,4089.7436523438,4044.2307128906,4059.3588867188,4127.8203125,4092.3076171875,4117.9487304688,206.0,33025.0
206,4119.1025390625,4147.0512695313,4147.5639648438,4156.9228515625,4111.9228515625,4093.205078125,4077.4357910156,4097.3076171875,4097.1796875,4053.7180175781,4066.794921875,4136.41015625,4097.8203125,4123.3334960938,207.0,33025.0
207,4116.0258789063,4148.4614257813,4138.3334960938,4151.794921875,4106.9228515625,4095.5129394531,4085.2563476563,4106.2822265625,4105.5126953125,4057.9487304688,4061.5385742188,4127.9487304688,4097.5639648438,4111.5385742188,208.0,33025.0
208,4110.8974609375,4136.2822265625,4123.3334960938,4142.1796875,4107.8203125,4095.5129394531,4091.794921875,4110.7690429688,4108.3334960938,4052.1794433594,4053.0769042969,4112.0512695313,4089.6154785156,4104.1025390625,209.0,33025.0
209,4108.8461914063,4135.7690429688,4124.615234375,4143.205078125,4105.1284179688,4096.1538085938,4088.58984375,4109.2309570313,4108.9741210938,4048.9743652344,4054.4870605469,4110.384765625,4085.6411132813,4103.0771484375,210.0,33025.0
210,4108.4614257813,4135.7690429688,4126.6665039063,4144.3588867188,4105.8974609375,4103.8461914063,4093.4614257813,4106.794921875,4108.0771484375,4047.4357910156,4059.1025390625,4123.205078125,4090.5129394531,4105.6411132813,211.0,33025.0
211,4110.384765625,4128.8461914063,4118.8461914063,4137.9487304688,4112.5639648438,4109.3588867188,4099.3588867188,4102.3076171875,4098.58984375,4040.6411132813,4055.6411132813,4126.2822265625,4090.0,4106.794921875,212.0,33025.0
212,4110.5126953125,4131.1538085938,4117.8203125,4135.2563476563,4103.3334960938,4103.58984375,4092.9487304688,4093.0769042969,4089.1025390625,4035.2563476563,4047.8205566406,4113.0771484375,4080.1281738281,4099.7436523438,213.0,33025.0
213,4103.9741210938,4132.3076171875,4124.2309570313,4137.3076171875,4100.2563476563,4104.2309570313,4090.7692871094,4090.6411132813,4090.3845214844,4036.6667480469,4047.4357910156,4105.0,4074.6154785156,4092.6923828125,214.0,33025.0
214,4100.5126953125,4121.9228515625,4120.5126953125,4135.8974609375,4117.3076171875,4109.615234375,4095.0,4099.7436523438,4094.2307128906,4041.41015625,4049.4870605469,4105.2563476563,4078.7180175781,4092.8205566406,215.0,33025.0
215,4106.41015625,4124.2309570313,4117.8203125,4137.0512695313,4124.615234375,4107.4360351563,4095.1281738281,4108.205078125,4095.5129394531,4043.8461914063,4049.8718261719,4106.9228515625,4080.8974609375,4093.58984375,216.0,33025.0
216,4114.3588867188,4134.4873046875,4126.0258789063,4142.5639648438,4116.6665039063,4106.2822265625,4096.1538085938,4104.2309570313,4094.4870605469,4040.1281738281,4055.7692871094,4113.8461914063,4079.7436523438,4095.3845214844,217.0,33025.0
217,4116.6665039063,4127.5639648438,4127.1796875,4141.41015625,4111.794921875,4107.0512695313,4102.5639648438,4092.1794433594,4088.8461914063,4036.0256347656,4056.41015625,4116.9228515625,4080.7692871094,4097.6923828125,218.0,33025.0
218,4110.5126953125,4121.9228515625,4119.4873046875,4137.4360351563,4110.2563476563,4106.41015625,4104.7436523438,4091.1538085938,4087.8205566406,4038.7180175781,4051.9230957031,4116.6665039063,4081.41015625,4096.6665039063,219.0,33025.0
219,4105.5126953125,4125.5126953125,4119.1025390625,4137.6923828125,4107.6923828125,4104.1025390625,4098.9741210938,4099.8715820313,4092.5642089844,4042.1794433594,4052.5642089844,4115.8974609375,4080.5129394531,4096.2822265625,220.0,33025.0
220,4109.1025390625,4126.41015625,4128.4614257813,4140.2563476563,4108.58984375,4101.5385742188,4091.9230957031,4103.0771484375,4093.205078125,4045.1281738281,4058.3332519531,4116.1538085938,4084.8718261719,4097.8203125,221.0,33025.0
221,4116.9228515625,4132.8203125,4135.0,4143.8461914063,4110.5126953125,4096.6665039063,4088.8461914063,4102.8203125,4093.9743652344,4052.0512695313,4064.1025390625,4121.0258789063,4091.5385742188,4108.9741210938,222.0,33025.0
222,4120.0,4136.2822265625,4132.8203125,4143.205078125,4108.7177734375,4093.3332519531,4089.2307128906,4101.2822265625,4095.7692871094,4054.3588867188,4068.58984375,4125.2563476563,4091.1538085938,4123.7177734375,223.0,33025.0
223,4111.6665039063,4125.1284179688,4122.4360351563,4137.1796875,4105.6411132813,4097.9487304688,4089.8718261719,4098.9741210938,4093.7180175781,4050.8974609375,4068.205078125,4126.1538085938,4090.0,4122.8203125,224.0,33025.0
224,4103.3334960938,4116.794921875,4113.7177734375,4134.1025390625,4106.5385742188,4104.4873046875,4091.6667480469,4098.0771484375,4093.0769042969,4050.6411132813,4061.5385742188,4120.1284179688,4089.3588867188,4106.0258789063,225.0,33025.0
225,4106.794921875,4122.1796875,4117.8203125,4135.7690429688,4109.4873046875,4101.2822265625,4090.2563476563,4094.8718261719,4093.9743652344,4049.3588867188,4057.3076171875,4110.8974609375,4084.1025390625,4103.0771484375,226.0,33025.0
226,4115.7690429688,4124.7436523438,4121.9228515625,4137.0512695313,4105.8974609375,4094.2307128906,4086.41015625,4085.6411132813,4086.41015625,4040.7692871094,4056.0256347656,4110.384765625,4079.7436523438,4119.1025390625,227.0,33025.0
227,4115.7690429688,4121.1538085938,4120.5126953125,4136.794921875,4103.7177734375,4096.5385742188,4084.7436523438,4085.3845214844,4081.0256347656,4043.0769042969,4063.4614257813,4122.4360351563,4084.4870605469,4127.0512695313,228.0,33025.0
228,4106.6665039063,4118.7177734375,4121.41015625,4136.1538085938,4110.384765625,4107.4360351563,4092.6923828125,4100.0,4096.1538085938,4058.7180175781,4076.2819824219,4127.9487304688,4091.794921875,4123.7177734375,229.0,33025.0
229,4104.615234375,4119.8715820313,4119.8715820313,4136.2822265625,4114.2309570313,4109.1025390625,4100.1284179688,4108.9741210938,4112.3076171875,4063.58984375,4074.7436523438,4121.1538085938,4092.9487304688,4123.0771484375,230.0,33025.0
230,4111.5385742188,4119.8715820313,4115.8974609375,4136.9228515625,4108.205078125,4096.0258789063,4089.7436523438,4108.4614257813,4111.0258789063,4059.6154785156,4070.7692871094,4117.1796875,4091.0256347656,4125.0,231.0,33025.0
231,4114.615234375,4115.5126953125,4121.41015625,4136.9228515625,4103.4614257813,4093.3332519531,4080.5129394531,4102.3076171875,4101.1538085938,4062.0512695313,4081.0256347656,4122.0512695313,4092.0512695313,4125.384765625,232.0,33025.0
232,4108.7177734375,4111.6665039063,4126.794921875,4138.0771484375,4112.3076171875,4106.0258789063,4087.0512695313,4090.1281738281,4092.3076171875,4062.3076171875,4085.2563476563,4122.5639648438,4091.794921875,4124.3588867188,233.0,33025.0
233,4097.8203125,4108.4614257813,4113.3334960938,4136.6665039063,4117.5639648438,4110.2563476563,4092.3076171875,4081.9230957031,4089.2307128906,4058.205078125,4077.3076171875,4117.0512695313,4088.58984375,4119.8715820313,234.0,33025.0
234,4098.4614257813,4107.3076171875,4106.794921875,4134.8715820313,4100.8974609375,4103.7177734375,4088.58984375,4086.1538085938,4093.0769042969,4061.1538085938,4080.0,4128.3334960938,4091.5385742188,4119.1025390625,235.0,33025.0
235,4110.5126953125,4114.8715820313,4121.794921875,4138.7177734375,4094.4870605469,4100.384765625,4088.4614257813,4092.8205566406,4095.1281738281,4062.5642089844,4084.1025390625,4145.0,4096.41015625,4129.4873046875,236.0,33025.0
236,4113.0771484375,4123.0771484375,4130.384765625,4142.3076171875,4114.4873046875,4097.9487304688,4092.4357910156,4100.1284179688,4097.8203125,4062.4357910156,4078.0769042969,4134.3588867188,4094.4870605469,4133.0771484375,237.0,33025.0
237,4107.8203125,4115.2563476563,4124.7436523438,4138.205078125,4120.5126953125,4096.9228515625,4091.1538085938,4109.2309570313,4106.2822265625,4069.7436523438,4077.6923828125,4120.5126953125,4091.794921875,4125.5126953125,238.0,33025.0
238,4104.1025390625,4104.3588867188,4117.6923828125,4133.7177734375,4107.1796875,4102.3076171875,4092.6923828125,4111.9228515625,4108.8461914063,4071.6667480469,4082.8205566406,4127.9487304688,4094.7436523438,4121.0258789063,239.0,33025.0
239,4104.4873046875,4113.0771484375,4116.6665039063,4136.1538085938,4112.6923828125,4106.41015625,4095.3845214844,4104.4873046875,4098.205078125,4062.5642089844,4077.8205566406,4129.4873046875,4094.6154785156,4123.4614257813,240.0,33025.0
240,4111.41015625,4127.0512695313,4122.5639648438,4139.3588867188,4122.1796875,4108.3334960938,4094.4870605469,4095.1281738281,4088.7180175781,4057.1794433594,4072.1794433594,4124.7436523438,4091.2819824219,4125.2563476563,241.0,33025.0
241,4115.2563476563,4122.5639648438,4121.9228515625,4138.4614257813,4111.6665039063,4105.8974609375,4094.1025390625,4096.6665039063,4093.8461914063,4061.5385742188,4079.8718261719,4128.4614257813,4091.41015625,4125.6411132813,242.0,33025.0
242,4111.794921875,4109.8715820313,4118.58984375,4136.2822265625,4102.8203125,4101.5385742188,4095.8974609375,4106.794921875,4103.7177734375,4067.6923828125,4089.2307128906,4129.3588867188,4092.3076171875,4127.3076171875,243.0,33025.0
243,4103.9741210938,4105.7690429688,4114.8715820313,4135.8974609375,4104.3588867188,4103.7177734375,4099.615234375,4117.3076171875,4109.615234375,4073.3332519531,4087.6923828125,4124.1025390625,4095.1281738281,4125.5126953125,244.0,33025.0
244,4102.9487304688,4105.1284179688,4106.41015625,4136.6665039063,4112.6923828125,4110.8974609375,4103.4614257813,4125.2563476563,4120.384765625,4078.4614257813,4085.3845214844,4122.0512695313,4101.41015625,4124.1025390625,245.0,33025.0
245,4111.0258789063,4107.3076171875,4110.5126953125,4137.9487304688,4122.6923828125,4113.3334960938,4106.5385742188,4124.2309570313,4128.205078125,4081.1538085938,4095.8974609375,4128.3334960938,4106.41015625,4131.2822265625,246.0,33025.0
246,4116.41015625,4113.9741210938,4122.1796875,4137.9487304688,4120.7690429688,4109.4873046875,4107.8203125,4111.2822265625,4115.1284179688,4079.6154785156,4110.2563476563,4138.9741210938,4108.58984375,4143.205078125,247.0,33025.0
247,4115.6411132813,4112.9487304688,4117.0512695313,4131.0258789063,4107.6923828125,4106.41015625,4108.8461914063,4109.4873046875,4101.41015625,4074.4870605469,4105.6411132813,4142.1796875,4109.1025390625,4145.7690429688,248.0,33025.0
248,4108.205078125,4104.8715820313,4106.794921875,4125.8974609375,4101.9228515625,4106.794921875,4108.4614257813,4120.7690429688,4108.205078125,4075.1281738281,4091.9230957031,4136.9228515625,4107.4360351563,4140.1284179688,249.0,33025.0
249,4100.0,4103.4614257813,4106.2822265625,4130.1284179688,4106.9228515625,4107.1796875,4107.1796875,4120.2563476563,4113.3334960938,4079.1025390625,4092.3076171875,4136.41015625,4104.8715820313,4133.7177734375,250.0,33025.0
250,4099.3588867188,4105.8974609375,4101.9228515625,4131.5385742188,4108.4614257813,4105.1284179688,4107.6923828125,4112.1796875,4107.8203125,4078.58984375,4096.5385742188,4135.8974609375,4102.3076171875,4122.6923828125,251.0,33025.0
251,4097.1796875,4105.5126953125,4097.8203125,4127.3076171875,4104.2309570313,4103.8461914063,4103.3334960938,4108.4614257813,4105.7690429688,4075.5129394531,4090.1281738281,4133.9741210938,4096.0258789063,4112.3076171875,252.0,33025.0
252,4091.794921875,4105.7690429688,4106.9228515625,4123.7177734375,4102.4360351563,4101.794921875,4091.9230957031,4105.2563476563,4105.384765625,4072.3076171875,4090.8974609375,4148.0771484375,4094.1025390625,4112.4360351563,253.0,33025.0
253,4093.9743652344,4108.7177734375,4112.8203125,4122.5639648438,4107.9487304688,4102.1796875,4088.7180175781,4103.3334960938,4106.794921875,4075.8974609375,4103.205078125,4163.9741210938,4101.794921875,4117.1796875,254.0,33025.0
254,4102.3076171875,4115.1284179688,4108.8461914063,4129.2309570313,4115.2563476563,4108.205078125,4100.384765625,4107.9487304688,4114.1025390625,4085.5129394531,4108.58984375,4157.8203125,4107.3076171875,4120.2563476563,255.0,33025.0
255,4108.8461914063,4120.5126953125,4109.8715820313,4136.794921875,4111.2822265625,4109.4873046875,4108.4614257813,4111.9228515625,4115.384765625,4087.3076171875,4108.3334960938,4140.1284179688,4107.3076171875,4121.0258789063,256.0,33025.0
256,4107.8203125,4119.2309570313,4108.58984375,4127.9487304688,4110.0,4108.58984375,4108.4614257813,4111.0258789063,4105.1284179688,4075.1281738281,4105.384765625,4123.0771484375,4103.0771484375,4115.5126953125,257.0,33025.0
257,4104.4873046875,4119.4873046875,4102.1796875,4120.384765625,4116.0258789063,4111.2822265625,4112.9487304688,4111.6665039063,4102.3076171875,4070.1281738281,4100.6411132813,4109.4873046875,4099.4873046875,4106.1538085938,258.0,33025.0
258,4106.0258789063,4126.5385742188,4110.6411132813,4128.58984375,4110.7690429688,4113.3334960938,4122.8203125,4119.1025390625,4115.5126953125,4083.3332519531,4104.3588867188,4105.8974609375,4104.2309570313,4104.1025390625,259.0,33025.0
259,4110.0,4125.1284179688,4116.9228515625,4128.7177734375,4110.6411132813,4115.5126953125,4125.8974609375,4125.2563476563,4126.794921875,4093.4614257813,4108.205078125,4106.41015625,4110.1284179688,4109.7436523438,260.0,33025.0
260,4114.4873046875,4121.41015625,4110.384765625,4126.6665039063,4121.5385742188,4116.5385742188,4119.8715820313,4125.0,4126.6665039063,4093.205078125,4106.0258789063,4109.7436523438,4109.8715820313,4117.3076171875,261.0,33025.0
261,4114.2309570313,4128.9741210938,4111.41015625,4133.3334960938,4116.6665039063,4109.8715820313,4117.9487304688,4125.2563476563,4124.615234375,4091.794921875,4113.4614257813,4124.4873046875,4111.2822265625,4124.2309570313,262.0,33025.0
262,4113.205078125,4131.6665039063,4117.9487304688,4133.7177734375,4107.4360351563,4104.3588867188,4116.0258789063,4119.8715820313,4125.384765625,4092.8205566406,4124.8715820313,4133.8461914063,4115.2563476563,4127.4360351563,263.0,33025.0
263,4108.9741210938,4123.58984375,4113.0771484375,4129.2309570313,4115.2563476563,4107.0512695313,4106.794921875,4108.3334960938,4121.0258789063,4091.9230957031,4121.1538085938,4122.3076171875,4113.9741210938,4122.3076171875,264.0,33025.0
264,4101.1538085938,4120.2563476563,4100.2563476563,4127.9487304688,4119.2309570313,4107.6923828125,4101.5385742188,4101.794921875,4110.1284179688,4085.0,4110.7690429688,4110.6411132813,4108.7177734375,4110.7690429688,265.0,33025.0
265,4099.3588867188,4122.6923828125,4096.0258789063,4125.0,4111.2822265625,4105.7690429688,4106.0258789063,4097.3076171875,4098.9741210938,4074.3588867188,4102.8203125,4102.4360351563,4100.6411132813,4097.9487304688,266.0,33025.0
266,4098.205078125,4123.3334960938,4099.7436523438,4122.0512695313,4110.384765625,4106.9228515625,4108.7177734375,4090.6411132813,4090.1281738281,4066.5385742188,4096.1538085938,4091.1538085938,4091.794921875,4089.7436523438,267.0,33025.0
267,4100.7690429688,4122.8203125,4105.7690429688,4124.2309570313,4108.8461914063,4107.4360351563,4108.7177734375,4092.9487304688,4087.1794433594,4066.6667480469,4090.0,4088.0769042969,4089.8718261719,4093.4614257813,268.0,33025.0
268,4107.5639648438,4122.1796875,4106.41015625,4123.205078125,4105.384765625,4107.9487304688,4113.0771484375,4102.6923828125,4088.205078125,4069.1025390625,4089.3588867188,4090.6411132813,4095.3845214844,4101.5385742188,269.0,33025.0
269,4108.58984375,4121.794921875,4103.3334960938,4120.7690429688,4106.9228515625,4106.6665039063,4112.1796875,4108.58984375,4095.5129394531,4075.0,4099.3588867188,4090.6411132813,4102.6923828125,4101.794921875,270.0,33025.0
270,4106.5385742188,4123.7177734375,4108.205078125,4123.58984375,4111.6665039063,4107.5639648438,4111.5385742188,4115.1284179688,4110.2563476563,4085.2563476563,4108.9741210938,4097.3076171875,4109.615234375,4100.8974609375,271.0,33025.0
271,4106.5385742188,4124.615234375,4110.7690429688,4126.41015625,4113.8461914063,4109.3588867188,4114.8715820313,4125.2563476563,4123.205078125,4092.0512695313,4109.8715820313,4104.1025390625,4112.3076171875,4108.8461914063,272.0,33025.0
272,4109.2309570313,4124.8715820313,4108.8461914063,4125.8974609375,4106.6665039063,4105.2563476563,4110.8974609375,4123.205078125,4123.9741210938,4092.9487304688,4107.9487304688,4097.6923828125,4112.8203125,4110.2563476563,273.0,33025.0
273,4105.8974609375,4123.9741210938,4111.1538085938,4125.5126953125,4107.8203125,4103.4614257813,4105.0,4102.4360351563,4108.58984375,4085.6411132813,4102.3076171875,4089.7436523438,4106.5385742188,4097.5639648438,274.0,33025.0
274,4101.6665039063,4124.3588867188,4105.7690429688,4127.5639648438,4117.9487304688,4107.8203125,4105.6411132813,4079.7436523438,4085.1281738281,4071.0256347656,4091.9230957031,4089.6154785156,4093.0769042969,4087.9487304688,275.0,33025.0
275,4106.1538085938,4126.41015625,4099.2309570313,4127.8203125,4113.8461914063,4102.9487304688,4102.5639648438,4073.8461914063,4075.7692871094,4065.1281738281,4088.0769042969,4089.7436523438,4089.3588867188,4087.6923828125,276.0,33025.0
276,4106.6665039063,4125.7690429688,4101.794921875,4124.7436523438,4104.1025390625,4096.5385742188,4098.4614257813,4084.1025390625,4085.8974609375,4072.9487304688,4092.5642089844,4088.7180175781,4097.8203125,4090.7692871094,277.0,33025.0
277,4099.2309570313,4121.6665039063,4100.5126953125,4123.8461914063,4105.0,4098.9741210938,4104.1025390625,4092.3076171875,4091.9230957031,4076.0256347656,4092.1794433594,4094.2307128906,4099.7436523438,4090.0,278.0,33025.0
278,4097.8203125,4120.0,4095.5129394531,4125.0,4108.8461914063,4098.7177734375,4110.0,4095.0,4090.3845214844,4072.4357910156,4087.6923828125,4102.8203125,4096.9228515625,4090.0,279.0,33025.0
279,4100.6411132813,4122.8203125,4102.9487304688,4123.8461914063,4109.7436523438,4097.9487304688,4107.6923828125,4101.41015625,4098.7177734375,4073.7180175781,4092.6923828125,4111.5385742188,4102.8203125,4099.615234375,280.0,33025.0
280,4102.9487304688,4123.7177734375,4113.205078125,4122.5639648438,4103.58984375,4101.5385742188,4106.1538085938,4106.41015625,4105.384765625,4078.205078125,4103.7177734375,4119.1025390625,4108.9741210938,4108.205078125,281.0,33025.0
281,4104.2309570313,4121.0258789063,4109.615234375,4123.0771484375,4097.1796875,4102.1796875,4114.8715820313,4107.5639648438,4106.5385742188,4085.8974609375,4107.1796875,4124.1025390625,4108.0771484375,4107.1796875,282.0,33025.0
282,4102.4360351563,4119.615234375,4102.0512695313,4123.4614257813,4104.7436523438,4103.4614257813,4124.8715820313,4111.5385742188,4115.384765625,4092.6923828125,4107.0512695313,4128.58984375,4108.58984375,4103.7177734375,283.0,33025.0
283,4099.615234375,4114.8715820313,4103.9741210938,4122.4360351563,4114.8715820313,4109.615234375,4124.2309570313,4108.8461914063,4113.9741210938,4087.0512695313,4106.794921875,4130.1284179688,4108.0771484375,4100.2563476563,284.0,33025.0
284,4096.9228515625,4108.8461914063,4099.8715820313,4120.7690429688,4111.41015625,4108.8461914063,4116.1538085938,4093.8461914063,4098.7177734375,4076.0256347656,4100.8974609375,4125.2563476563,4104.2309570313,4092.8205566406,285.0,33025.0
285,4100.5126953125,4114.615234375,4090.0,4120.1284179688,4106.9228515625,4105.1284179688,4113.0771484375,4089.2307128906,4096.0258789063,4072.9487304688,4095.7692871094,4121.0258789063,4103.3334960938,4093.3332519531,286.0,33025.0
286,4106.41015625,4124.3588867188,4100.1284179688,4123.4614257813,4109.1025390625,4106.9228515625,4117.8203125,4102.5639648438,4104.4873046875,4079.1025390625,4102.1796875,4131.2822265625,4106.794921875,4104.8715820313,287.0,33025.0
287,4106.1538085938,4115.8974609375,4116.6665039063,4126.1538085938,4110.2563476563,4106.5385742188,4122.4360351563,4112.6923828125,4112.8203125,4089.8718261719,4115.8974609375,4144.7436523438,4111.1538085938,4110.7690429688,288.0,33025.0
288,4106.9228515625,4107.9487304688,4114.2309570313,4122.8203125,4110.6411132813,4106.2822265625,4123.58984375,4110.7690429688,4120.0,4093.7180175781,4119.1025390625,4142.3076171875,4113.3334960938,4108.0771484375,289.0,33025.0
289,4112.0512695313,4122.3076171875,4112.0512695313,4124.4873046875,4108.0771484375,4107.1796875,4122.3076171875,4109.8715820313,4116.6665039063,4089.1025390625,4113.3334960938,4135.0,4111.41015625,4106.6665039063,290.0,33025.0
290,4115.8974609375,4128.3334960938,4115.7690429688,4128.9741210938,4103.58984375,4106.0258789063,4121.9228515625,4112.1796875,4107.3076171875,4088.8461914063,4106.0258789063,4138.4614257813,4111.2822265625,4109.2309570313,291.0,33025.0
291,4109.4873046875,4110.7690429688,4103.205078125,4122.9487304688,4105.5126953125,4105.8974609375,4123.4614257813,4110.5126953125,4108.7177734375,4086.9230957031,4094.3588867188,4138.205078125,4107.8203125,4106.41015625,292.0,33025.0
292,4100.2563476563,4103.9741210938,4096.5385742188,4116.6665039063,4110.5126953125,4109.7436523438,4125.384765625,4109.1025390625,4109.1025390625,4077.3076171875,4088.3332519531,4122.9487304688,4099.3588867188,4105.5126953125,293.0,33025.0
293,4103.3334960938,4112.4360351563,4112.6923828125,4123.205078125,4108.0771484375,4107.0512695313,4119.3588867188,4105.384765625,4098.4614257813,4072.9487304688,4091.1538085938,4115.5126953125,4094.6154785156,4105.2563476563,294.0,33025.0
294,4103.4614257813,4109.3588867188,4109.2309570313,4123.4614257813,4105.1284179688,4101.0258789063,4110.384765625,4094.1025390625,4089.4870605469,4071.794921875,4085.7692871094,4123.58984375,4093.0769042969,4096.2822265625,295.0,33025.0
295,4095.1281738281,4103.4614257813,4089.3588867188,4109.4873046875,4109.1025390625,4104.4873046875,4113.7177734375,4085.5129394531,4086.9230957031,4066.6667480469,4075.1281738281,4118.0771484375,4088.8461914063,4088.3332519531,296.0,33025.0
296,4095.0,4106.41015625,4092.4357910156,4103.205078125,4106.1538085938,4107.1796875,4120.1284179688,4093.58984375,4093.7180175781,4067.5642089844,4080.2563476563,4101.794921875,4091.1538085938,4089.3588867188,297.0,33025.0
297,4098.0771484375,4105.7690429688,4102.9487304688,4109.8715820313,4103.58984375,4106.794921875,4119.7436523438,4108.9741210938,4107.9487304688,4083.0769042969,4096.794921875,4110.5126953125,4102.4360351563,4090.5129394531,298.0,33025.0
298,4097.8203125,4104.3588867188,4099.615234375,4116.41015625,4108.4614257813,4105.0,4113.7177734375,4105.6411132813,4111.0258789063,4091.9230957031,4107.8203125,4128.7177734375,4108.0771484375,4093.0769042969,299.0,33025.0
299,4100.1284179688,4107.8203125,4098.3334960938,4114.4873046875,4100.6411132813,4096.5385742188,4106.2822265625,4091.2819824219,4099.4873046875,4082.6923828125,4104.1025390625,4127.5639648438,4106.41015625,4101.794921875,300.0,33025.0
300,4103.8461914063,4106.794921875,4109.2309570313,4112.0512695313,4093.4614257813,4093.58984375,4109.3588867188,4094.8718261719,4097.5639648438,4081.5385742188,4099.615234375,4129.7436523438,4105.7690429688,4108.7177734375,301.0,33025.0
301,4101.9228515625,4104.3588867188,4110.7690429688,4120.0,4105.8974609375,4101.41015625,4120.0,4109.2309570313,4106.794921875,4089.1025390625,4104.615234375,4138.3334960938,4106.2822265625,4106.41015625,302.0,33025.0
302,4098.0771484375,4109.4873046875,4103.9741210938,4123.4614257813,4113.8461914063,4104.7436523438,4121.9228515625,4109.7436523438,4106.5385742188,4087.0512695313,4102.5639648438,4129.615234375,4105.7690429688,4096.1538085938,303.0,33025.0
303,4097.9487304688,4108.9741210938,4105.5126953125,4115.5126953125,4103.58984375,4102.4360351563,4118.9741210938,4105.2563476563,4103.58984375,4081.5385742188,4095.8974609375,4117.0512695313,4103.58984375,4090.6411132813,304.0,33025.0
304,4096.0258789063,4096.5385742188,4107.1796875,4113.3334960938,4102.5639648438,4105.1284179688,4119.615234375,4105.6411132813,4107.5639648438,4081.41015625,4100.1284179688,4122.8203125,4105.1284179688,4099.3588867188,305.0,33025.0
305,4098.205078125,4094.3588867188,4104.2309570313,4120.8974609375,4111.41015625,4106.2822265625,4119.3588867188,4104.8715820313,4107.6923828125,4083.4614257813,4102.4360351563,4127.9487304688,4107.3076171875,4108.205078125,306.0,33025.0
306,4102.3076171875,4107.5639648438,4105.2563476563,4123.7177734375,4104.615234375,4103.8461914063,4119.615234375,4111.9228515625,4111.2822265625,4087.4357910156,4094.6154785156,4122.9487304688,4100.2563476563,4107.1796875,307.0,33025.0
307,4103.58984375,4112.6923828125,4105.8974609375,4121.1538085938,4098.9741210938,4103.58984375,4122.0512695313,4120.7690429688,4119.2309570313,4089.6154785156,4095.8974609375,4126.41015625,4094.2307128906,4106.794921875,308.0,33025.0
308,4108.0771484375,4107.9487304688,4105.6411132813,4123.4614257813,4113.3334960938,4106.6665039063,4124.615234375,4116.2822265625,4116.41015625,4090.1281738281,4105.6411132813,4137.0512695313,4101.9228515625,4110.8974609375,309.0,33025.0
309,4105.6411132813,4107.8203125,4110.6411132813,4127.4360351563,4123.8461914063,4109.2309570313,4122.1796875,4106.1538085938,4105.2563476563,4091.0256347656,4109.3588867188,4139.4873046875,4103.9741210938,4109.615234375,310.0,33025.0
310,4095.0,4109.1025390625,4111.41015625,4123.58984375,4112.1796875,4101.1538085938,4109.615234375,4101.41015625,4097.1796875,4086.0256347656,4107.0512695313,4134.2309570313,4092.9487304688,4103.3334960938,311.0,33025.0
311,4093.58984375,4105.8974609375,4107.3076171875,4117.1796875,4103.9741210938,4091.5385742188,4106.5385742188,4107.1796875,4102.4360351563,4084.3588867188,4106.41015625,4131.2822265625,4091.1538085938,4103.3334960938,312.0,33025.0
312,4099.1025390625,4106.2822265625,4109.8715820313,4118.7177734375,4109.8715820313,4099.3588867188,4120.8974609375,4121.794921875,4118.9741210938,4093.0769042969,4110.7690429688,4135.5126953125,4096.0258789063,4109.8715820313,313.0,33025.0
313,4100.7690429688,4109.7436523438,4114.4873046875,4123.4614257813,4110.384765625,4109.7436523438,4122.5639648438,4123.3334960938,4121.794921875,4093.7180175781,4110.0,4140.6411132813,4092.1794433594,4109.7436523438,314.0,33025.0
314,4100.384765625,4109.3588867188,4112.4360351563,4122.0512695313,4106.0258789063,4104.2309570313,4108.7177734375,4106.6665039063,4106.2822265625,4088.3332519531,4106.794921875,4135.6411132813,4089.8718261719,4107.5639648438,315.0,33025.0
315,4101.0258789063,4107.9487304688,4106.794921875,4119.7436523438,4106.9228515625,4100.1284179688,4110.384765625,4100.5126953125,4102.4360351563,4090.5129394531,4106.2822265625,4126.6665039063,4094.1025390625,4116.9228515625,316.0,33025.0
316,4098.8461914063,4107.1796875,4104.4873046875,4121.794921875,4111.1538085938,4109.3588867188,4118.58984375,4107.6923828125,4109.3588867188,4088.8461914063,4104.8715820313,4132.5639648438,4093.58984375,4124.4873046875,317.0,33025.0
317,4092.6923828125,4104.2309570313,4102.5639648438,4120.1284179688,4108.4614257813,4110.0,4114.2309570313,4113.8461914063,4110.8974609375,4081.6667480469,4103.4614257813,4143.0771484375,4087.1794433594,4115.7690429688,318.0,33025.0
318,4094.4870605469,4104.8715820313,4107.0512695313,4114.4873046875,4103.0771484375,4101.41015625,4114.3588867188,4118.4614257813,4112.1796875,4082.4357910156,4104.4873046875,4139.8715820313,4085.8974609375,4108.58984375,319.0,33025.0
319,4100.5126953125,4108.205078125,4111.794921875,4117.6923828125,4107.6923828125,4103.3334960938,4120.0,4112.5639648438,4107.3076171875,4082.9487304688,4106.9228515625,4127.8203125,4090.0,4111.41015625,320.0,33025.0
320,4097.6923828125,4102.9487304688,4102.1796875,4122.9487304688,4114.8715820313,4109.615234375,4119.4873046875,4102.4360351563,4098.9741210938,4079.4870605469,4106.0258789063,4126.0258789063,4089.7436523438,4114.615234375,321.0,33025.0
321,4095.5129394531,4092.3076171875,4099.8715820313,4116.5385742188,4106.5385742188,4104.615234375,4119.4873046875,4112.3076171875,4110.1284179688,4085.7692871094,4107.1796875,4136.794921875,4088.7180175781,4119.4873046875,322.0,33025.0
322,4097.4360351563,4091.41015625,4108.3334960938,4106.9228515625,4092.5642089844,4095.7692871094,4117.5639648438,4122.9487304688,4122.9487304688,4095.1281738281,4112.6923828125,4141.1538085938,4091.41015625,4121.6665039063,323.0,33025.0
323,4099.2309570313,4094.2307128906,4102.3076171875,4106.0258789063,4095.2563476563,4092.6923828125,4108.0771484375,4107.8203125,4108.3334960938,4088.0769042969,4112.8203125,4135.384765625,4092.9487304688,4116.9228515625,324.0,33025.0
324,4098.9741210938,4091.9230957031,4097.4360351563,4109.3588867188,4107.0512695313,4094.7436523438,4104.3588867188,4091.1538085938,4092.9487304688,4080.0,4107.8203125,4133.58984375,4093.4614257813,4116.0258789063,325.0,33025.0
325,4094.2307128906,4092.4357910156,4103.7177734375,4109.3588867188,4106.41015625,4097.3076171875,4108.4614257813,4093.7180175781,4100.8974609375,4084.1025390625,4106.0258789063,4126.0258789063,4090.7692871094,4115.2563476563,326.0,33025.0
326,4086.2819824219,4090.0,4101.41015625,4105.5126953125,4089.7436523438,4095.2563476563,4108.205078125,4098.0771484375,4103.8461914063,4083.58984375,4104.4873046875,4108.3334960938,4083.0769042969,4107.3076171875,327.0,33025.0
327,4082.5642089844,4082.5642089844,4093.58984375,4101.6665039063,4082.1794433594,4088.4614257813,4105.1284179688,4097.4360351563,4097.9487304688,4081.41015625,4104.3588867188,4110.2563476563,4084.4870605469,4109.4873046875,328.0,33025.0
328,4089.1025390625,4083.4614257813,4094.4870605469,4101.9228515625,4095.1281738281,4088.4614257813,4104.4873046875,4102.0512695313,4103.58984375,4088.205078125,4107.8203125,4122.9487304688,4093.3332519531,4127.0512695313,329.0,33025.0
329,4094.4870605469,4090.5129394531,4097.9487304688,4102.5639648438,4108.0771484375,4100.1284179688,4108.205078125,4108.4614257813,4110.0,4093.205078125,4107.3076171875,4119.7436523438,4094.3588867188,4136.794921875,330.0,33025.0
330,4091.5385742188,4090.3845214844,4097.0512695313,4103.58984375,4108.58984375,4107.6923828125,4111.5385742188,4110.8974609375,4110.2563476563,4091.2819824219,4111.1538085938,4120.1284179688,4095.2563476563,4138.3334960938,331.0,33025.0
331,4092.1794433594,4087.5642089844,4103.205078125,4108.7177734375,4105.384765625,4104.615234375,4113.205078125,4108.9741210938,4114.2309570313,4092.3076171875,4123.0771484375,4130.7690429688,4099.1025390625,4140.6411132813,332.0,33025.0
332,4096.1538085938,4094.3588867188,4111.5385742188,4111.2822265625,4108.3334960938,4106.0258789063,4121.5385742188,4108.58984375,4119.4873046875,4095.8974609375,4125.7690429688,4128.8461914063,4096.9228515625,4138.9741210938,333.0,33025.0
333,4098.3334960938,4099.8715820313,4111.0258789063,4109.4873046875,4111.1538085938,4110.0,4126.794921875,4112.8203125,4121.6665039063,4097.1796875,4123.0771484375,4123.58984375,4101.0258789063,4144.1025390625,334.0,33025.0
334,4098.7177734375,4094.6154785156,4106.1538085938,4108.205078125,4102.9487304688,4107.1796875,4122.5639648438,4113.205078125,4119.2309570313,4096.6665039063,4123.58984375,4128.3334960938,4105.384765625,4155.0,335.0,33025.0
335,4100.1284179688,4087.8205566406,4101.794921875,4108.7177734375,4094.3588867188,4106.6665039063,4121.1538085938,4108.9741210938,4110.1284179688,4093.4614257813,4117.3076171875,4127.9487304688,4095.0,4150.8974609375,336.0,33025.0
336,4105.2563476563,4088.8461914063,4102.1796875,4109.1025390625,4099.8715820313,4109.7436523438,4125.6411132813,4109.3588867188,4103.8461914063,4089.4870605469,4107.0512695313,4122.3076171875,4087.9487304688,4137.8203125,337.0,33025.0
337,4106.1538085938,4093.8461914063,4102.4360351563,4106.6665039063,4110.6411132813,4103.3334960938,4125.0,4111.9228515625,4108.205078125,4090.2563476563,4107.0512695313,4121.6665039063,4093.58984375,4139.3588867188,338.0,33025.0
338,4103.7177734375,4094.6154785156,4105.5126953125,4106.1538085938,4106.0258789063,4092.6923828125,4114.615234375,4107.8203125,4110.0,4091.794921875,4111.5385742188,4122.3076171875,4095.7692871094,4146.1538085938,339.0,33025.0
339,4102.9487304688,4091.2819824219,4103.9741210938,4105.5126953125,4097.8203125,4094.1025390625,4106.6665039063,4104.615234375,4102.3076171875,4089.4870605469,4109.4873046875,4119.3588867188,4091.41015625,4141.2822265625,340.0,33025.0
340,4099.8715820313,4088.3332519531,4100.5126953125,4104.8715820313,4102.6923828125,4103.4614257813,4113.4614257813,4106.9228515625,4098.8461914063,4088.9743652344,4105.6411132813,4118.3334960938,4090.3845214844,4136.9228515625,341.0,33025.0
341,4100.384765625,4092.3076171875,4109.4873046875,4110.6411132813,4111.0258789063,4107.3076171875,4125.2563476563,4110.0,4105.5126953125,4091.9230957031,4108.7177734375,4123.4614257813,4094.2307128906,4139.7436523438,342.0,33025.0
342,4104.8715820313,4097.4360351563,4107.3076171875,4113.58984375,4110.1284179688,4106.794921875,4127.6923828125,4111.794921875,4109.1025390625,4092.8205566406,4112.3076171875,4118.9741210938,4095.1281738281,4141.5385742188,343.0,33025.0
343,4106.6665039063,4093.4614257813,4095.3845214844,4108.7177734375,4103.3334960938,4106.794921875,4123.3334960938,4111.6665039063,4099.8715820313,4091.0256347656,4106.5385742188,4105.5126953125,4091.5385742188,4139.8715820313,344.0,33025.0
344,4102.8203125,4092.3076171875,4103.4614257813,4109.1025390625,4104.1025390625,4107.1796875,4118.3334960938,4110.1284179688,4098.8461914063,4090.7692871094,4107.0512695313,4110.1284179688,4096.2822265625,4137.8203125,345.0,33025.0
345,4101.2822265625,4097.5639648438,4117.3076171875,4113.8461914063,4110.2563476563,4106.0258789063,4114.4873046875,4115.1284179688,4118.3334960938,4099.4873046875,4123.3334960938,4126.794921875,4108.8461914063,4140.0,346.0,33025.0
346,4103.3334960938,4094.4870605469,4112.9487304688,4110.6411132813,4107.9487304688,4103.9741210938,4113.3334960938,4117.9487304688,4123.4614257813,4105.0,4126.0258789063,4125.5126953125,4109.1025390625,4141.6665039063,347.0,33025.0
347,4102.5639648438,4089.7436523438,4103.9741210938,4105.5126953125,4103.4614257813,4103.4614257813,4116.0258789063,4112.1796875,4107.3076171875,4096.5385742188,4110.6411132813,4117.0512695313,4102.5639648438,4140.8974609375,348.0,33025.0
348,4105.6411132813,4093.9743652344,4104.8715820313,4106.1538085938,4105.5126953125,4106.5385742188,4121.41015625,4114.7436523438,4103.3334960938,4091.1538085938,4106.41015625,4121.5385742188,4105.0,4140.8974609375,349.0,33025.0
349,4109.8715820313,4096.2822265625,4110.8974609375,4109.615234375,4109.7436523438,4111.5385742188,4124.615234375,4119.4873046875,4108.3334960938,4095.0,4112.0512695313,4123.7177734375,4107.3076171875,4139.615234375,350.0,33025.0
350,4111.6665039063,4136.9228515625,4139.4873046875,4147.0512695313,4110.8974609375,4113.0771484375,4097.3076171875,4098.9741210938,4110.384765625,4106.0258789063,4083.8461914063,4097.9487304688,4097.8203125,4121.9228515625,1.0,33026.0
351,4110.5126953125,4136.9228515625,4138.9741210938,4153.8461914063,4114.3588867188,4116.9228515625,4101.0258789063,4094.2307128906,4108.8461914063,4099.8715820313,4074.7436523438,4090.5129394531,4094.3588867188,4118.205078125,2.0,33026.0
352,4115.2563476563,4139.7436523438,4147.8203125,4155.384765625,4121.5385742188,4119.8715820313,4101.0258789063,4092.5642089844,4112.6923828125,4093.9743652344,4074.3588867188,4095.6411132813,4092.6923828125,4120.7690429688,3.0,33026.0
353,4110.7690429688,4133.205078125,4145.2563476563,4147.9487304688,4108.7177734375,4114.8715820313,4093.7180175781,4089.6154785156,4100.5126953125,4090.3845214844,4062.1794433594,4093.205078125,4084.3588867188,4111.1538085938,4.0,33026.0
354,4108.4614257813,4129.2309570313,4142.9487304688,4146.794921875,4105.1284179688,4109.7436523438,4090.5129394531,4085.8974609375,4090.1281738281,4089.4870605469,4056.2819824219,4086.41015625,4081.41015625,4100.6411132813,5.0,33026.0
355,4115.384765625,4140.384765625,4151.6665039063,4156.2822265625,4123.205078125,4112.8203125,4095.7692871094,4090.6411132813,4102.1796875,4092.1794433594,4072.0512695313,4098.205078125,4091.1538085938,4112.9487304688,6.0,33026.0
356,4118.0771484375,4146.9228515625,4154.4873046875,4160.1284179688,4121.6665039063,4113.3334960938,4097.6923828125,4095.7692871094,4108.3334960938,4096.0258789063,4080.6411132813,4111.9228515625,4096.41015625,4125.7690429688,7.0,33026.0
357,4112.6923828125,4139.3588867188,4148.0771484375,4153.0771484375,4100.5126953125,4104.7436523438,4091.6667480469,4088.0769042969,4094.2307128906,4089.6154785156,4064.7436523438,4103.0771484375,4084.4870605469,4113.7177734375,8.0,33026.0
358,4109.615234375,4137.1796875,4145.8974609375,4150.8974609375,4106.2822265625,4108.3334960938,4090.2563476563,4081.5385742188,4086.1538085938,4079.3588867188,4051.794921875,4089.8718261719,4073.8461914063,4097.4360351563,9.0,33026.0
359,4113.4614257813,4141.1538085938,4145.1284179688,4151.794921875,4126.41015625,4120.1284179688,4099.7436523438,4087.8205566406,4094.1025390625,4079.4870605469,4058.3332519531,4090.5129394531,4076.2819824219,4099.2309570313,10.0,33026.0
360,4113.58984375,4135.1284179688,4140.5126953125,4144.4873046875,4123.58984375,4119.4873046875,4107.3076171875,4093.7180175781,4097.3076171875,4083.58984375,4061.0256347656,4097.1796875,4078.7180175781,4102.4360351563,11.0,33026.0
361,4111.6665039063,4126.1538085938,4137.4360351563,4138.8461914063,4115.6411132813,4114.2309570313,4107.4360351563,4091.1538085938,4095.5129394531,4084.8718261719,4056.0256347656,4110.0,4076.2819824219,4102.8203125,12.0,33026.0
362,4113.7177734375,4126.41015625,4135.6411132813,4140.1284179688,4120.6411132813,4119.8715820313,4107.8203125,4093.205078125,4103.0771484375,4088.7180175781,4065.7692871094,4123.0771484375,4083.7180175781,4112.9487304688,13.0,33026.0
363,4114.4873046875,4128.205078125,4138.0771484375,4141.0258789063,4118.205078125,4122.9487304688,4104.3588867188,4096.41015625,4106.2822265625,4092.8205566406,4074.3588867188,4112.0512695313,4092.5642089844,4115.5126953125,14.0,33026.0
364,4114.7436523438,4124.1025390625,4142.0512695313,4139.2309570313,4112.5639648438,4114.4873046875,4095.6411132813,4084.7436523438,4095.8974609375,4089.7436523438,4062.6923828125,4089.2307128906,4083.205078125,4105.2563476563,15.0,33026.0
365,4115.2563476563,4130.6411132813,4141.0258789063,4141.1538085938,4118.7177734375,4112.6923828125,4091.41015625,4075.5129394531,4090.1281738281,4084.3588867188,4055.7692871094,4088.3332519531,4078.205078125,4106.5385742188,16.0,33026.0
366,4115.2563476563,4138.0771484375,4136.41015625,4143.8461914063,4118.4614257813,4115.5126953125,4090.7692871094,4082.1794433594,4091.794921875,4081.794921875,4062.5642089844,4096.794921875,4085.7692871094,4116.5385742188,17.0,33026.0
367,4116.5385742188,4127.9487304688,4134.2309570313,4142.5639648438,4111.1538085938,4111.5385742188,4089.7436523438,4087.8205566406,4093.3332519531,4084.7436523438,4060.7692871094,4092.9487304688,4084.7436523438,4113.3334960938,18.0,33026.0
368,4115.7690429688,4119.4873046875,4132.8203125,4136.0258789063,4106.41015625,4106.2822265625,4090.3845214844,4089.4870605469,4097.9487304688,4090.1281738281,4058.0769042969,4089.3588867188,4080.8974609375,4108.0771484375,19.0,33026.0
369,4115.5126953125,4120.6411132813,4131.1538085938,4129.7436523438,4098.205078125,4106.1538085938,4092.6923828125,4093.205078125,4100.6411132813,4090.8974609375,4063.8461914063,4092.9487304688,4085.8974609375,4115.7690429688,20.0,33026.0
370,4117.8203125,4117.0512695313,4133.4614257813,4131.1538085938,4098.8461914063,4112.8203125,4098.3334960938,4095.1281738281,4100.5126953125,4091.41015625,4067.0512695313,4096.2822265625,4091.794921875,4123.7177734375,21.0,33026.0
371,4119.7436523438,4108.9741210938,4136.6665039063,4132.4360351563,4112.5639648438,4116.6665039063,4107.6923828125,4095.2563476563,4107.3076171875,4093.4614257813,4073.205078125,4099.1025390625,4094.7436523438,4123.8461914063,22.0,33026.0
372,4115.5126953125,4105.5126953125,4129.615234375,4125.0,4110.2563476563,4111.2822265625,4108.8461914063,4095.6411132813,4108.4614257813,4093.0769042969,4072.8205566406,4094.3588867188,4092.6923828125,4115.7690429688,23.0,33026.0
373,4109.3588867188,4106.41015625,4118.7177734375,4120.2563476563,4099.7436523438,4105.1284179688,4097.4360351563,4094.7436523438,4097.6923828125,4089.2307128906,4061.41015625,4086.1538085938,4085.0,4107.4360351563,24.0,33026.0
374,4111.5385742188,4110.7690429688,4123.7177734375,4128.4614257813,4105.8974609375,4107.4360351563,4089.7436523438,4093.205078125,4092.6923828125,4088.8461914063,4060.7692871094,4093.205078125,4081.794921875,4107.1796875,25.0,33026.0
375,4107.9487304688,4111.794921875,4127.4360351563,4131.2822265625,4111.41015625,4109.3588867188,4092.9487304688,4088.7180175781,4094.4870605469,4084.4870605469,4055.1281738281,4090.7692871094,4076.0256347656,4103.205078125,26.0,33026.0
376,4100.6411132813,4107.8203125,4112.8203125,4122.9487304688,4106.1538085938,4107.4360351563,4095.2563476563,4082.4357910156,4090.5129394531,4072.8205566406,4032.9487304688,4067.1794433594,4063.7180175781,4090.0,27.0,33026.0
377,4104.7436523438,4106.0258789063,4107.9487304688,4121.6665039063,4104.8715820313,4106.0258789063,4091.6667480469,4083.205078125,4086.0256347656,4074.4870605469,4032.8205566406,4064.2307128906,4067.9487304688,4085.1281738281,28.0,33026.0
378,4109.7436523438,4107.1796875,4117.8203125,4124.1025390625,4109.1025390625,4106.9228515625,4094.4870605469,4089.6154785156,4096.0258789063,4089.8718261719,4062.9487304688,4088.8461914063,4085.5129394531,4098.205078125,29.0,33026.0
379,4107.6923828125,4108.9741210938,4122.0512695313,4118.7177734375,4109.3588867188,4111.0258789063,4100.1284179688,4093.0769042969,4106.0258789063,4095.1281738281,4081.6667480469,4104.8715820313,4094.7436523438,4108.58984375,30.0,33026.0
380,4102.1796875,4103.8461914063,4118.4614257813,4111.9228515625,4106.41015625,4111.2822265625,4095.5129394531,4093.205078125,4101.41015625,4088.7180175781,4085.3845214844,4107.1796875,4099.4873046875,4109.4873046875,31.0,33026.0
381,4099.4873046875,4094.1025390625,4110.6411132813,4109.1025390625,4104.4873046875,4106.1538085938,4088.58984375,4090.7692871094,4098.8461914063,4093.7180175781,4095.5129394531,4110.6411132813,4105.7690429688,4112.5639648438,32.0,33026.0
382,4099.2309570313,4089.4870605469,4103.7177734375,4099.3588867188,4104.3588867188,4105.8974609375,4090.6411132813,4092.1794433594,4106.6665039063,4102.5639648438,4101.1538085938,4110.384765625,4105.0,4113.4614257813,33.0,33026.0
383,4101.1538085938,4091.0256347656,4100.8974609375,4090.3845214844,4105.0,4111.41015625,4095.8974609375,4101.5385742188,4109.1025390625,4099.2309570313,4095.6411132813,4108.4614257813,4103.8461914063,4112.4360351563,34.0,33026.0
384,4107.0512695313,4094.2307128906,4100.1284179688,4095.1281738281,4105.2563476563,4112.1796875,4097.0512695313,4109.2309570313,4105.2563476563,4097.8203125,4096.41015625,4109.2309570313,4105.6411132813,4119.4873046875,35.0,33026.0
385,4105.5126953125,4093.8461914063,4099.3588867188,4097.4360351563,4106.2822265625,4110.384765625,4094.2307128906,4106.5385742188,4107.8203125,4104.2309570313,4103.7177734375,4107.4360351563,4104.4873046875,4124.1025390625,36.0,33026.0
386,4103.3334960938,4091.5385742188,4103.3334960938,4094.4870605469,4106.5385742188,4106.6665039063,4091.6667480469,4106.0258789063,4115.1284179688,4109.3588867188,4108.8461914063,4115.0,4112.3076171875,4122.6923828125,37.0,33026.0
387,4112.8203125,4095.0,4111.2822265625,4100.6411132813,4105.0,4105.1284179688,4097.4360351563,4116.9228515625,4122.9487304688,4112.1796875,4115.8974609375,4129.2309570313,4124.8715820313,4133.205078125,38.0,33026.0
388,4115.8974609375,4097.4360351563,4110.5126953125,4105.1284179688,4106.0258789063,4118.0771484375,4111.1538085938,4122.6923828125,4125.7690429688,4113.8461914063,4119.4873046875,4126.1538085938,4122.9487304688,4138.8461914063,39.0,33026.0
389,4108.7177734375,4098.7177734375,4104.2309570313,4104.1025390625,4109.1025390625,4124.2309570313,4113.3334960938,4115.7690429688,4121.1538085938,4109.8715820313,4111.6665039063,4109.7436523438,4117.9487304688,4128.3334960938,40.0,33026.0
390,4104.8715820313,4100.6411132813,4102.6923828125,4108.58984375,4108.7177734375,4110.8974609375,4099.2309570313,4106.41015625,4113.9741210938,4105.384765625,4103.9741210938,4103.7177734375,4116.6665039063,4120.384765625,41.0,33026.0
391,4103.0771484375,4095.7692871094,4099.615234375,4111.2822265625,4106.5385742188,4103.9741210938,4093.3332519531,4102.0512695313,4112.1796875,4106.41015625,4105.6411132813,4100.0,4110.2563476563,4115.2563476563,42.0,33026.0
392,4101.2822265625,4093.3332519531,4094.6154785156,4105.7690429688,4108.58984375,4111.0258789063,4099.7436523438,4104.2309570313,4118.58984375,4106.9228515625,4105.384765625,4094.2307128906,4106.41015625,4112.3076171875,43.0,33026.0
393,4103.4614257813,4103.8461914063,4096.9228515625,4103.7177734375,4106.1538085938,4109.4873046875,4096.794921875,4107.5639648438,4120.5126953125,4107.4360351563,4103.4614257813,4098.9741210938,4109.615234375,4118.4614257813,44.0,33026.0
394,4109.3588867188,4110.8974609375,4106.0258789063,4107.1796875,4098.8461914063,4102.9487304688,4090.7692871094,4106.9228515625,4117.8203125,4107.6923828125,4106.41015625,4110.8974609375,4108.8461914063,4124.4873046875,45.0,33026.0
395,4111.41015625,4106.5385742188,4108.4614257813,4107.9487304688,4102.9487304688,4107.4360351563,4092.8205566406,4105.6411132813,4119.4873046875,4105.8974609375,4107.1796875,4117.6923828125,4109.615234375,4123.7177734375,46.0,33026.0
396,4110.5126953125,4107.6923828125,4101.1538085938,4105.8974609375,4112.4360351563,4111.5385742188,4093.9743652344,4108.205078125,4122.3076171875,4107.0512695313,4105.6411132813,4119.2309570313,4115.2563476563,4125.7690429688,47.0,33026.0
397,4110.7690429688,4107.1796875,4097.0512695313,4102.5639648438,4110.6411132813,4111.0258789063,4092.1794433594,4108.58984375,4121.6665039063,4109.8715820313,4105.2563476563,4115.7690429688,4113.58984375,4127.1796875,48.0,33026.0
398,4107.6923828125,4095.7692871094,4096.794921875,4098.7177734375,4105.7690429688,4109.3588867188,4092.3076171875,4107.0512695313,4122.4360351563,4109.3588867188,4106.9228515625,4109.4873046875,4110.2563476563,4122.4360351563,49.0,33026.0
399,4104.1025390625,4088.58984375,4093.9743652344,4093.58984375,4107.8203125,4106.5385742188,4091.9230957031,4108.7177734375,4124.4873046875,4110.7690429688,4109.2309570313,4107.1796875,4115.7690429688,4122.5639648438,50.0,33026.0
400,4105.5126953125,4095.5129394531,4094.4870605469,4095.0,4107.8203125,4105.1284179688,4092.8205566406,4108.4614257813,4121.41015625,4113.205078125,4111.2822265625,4112.0512695313,4120.8974609375,4125.2563476563,51.0,33026.0
401,4108.3334960938,4106.794921875,4096.5385742188,4101.0258789063,4106.0258789063,4105.0,4091.9230957031,4106.41015625,4115.2563476563,4110.0,4110.6411132813,4116.1538085938,4116.794921875,4126.1538085938,52.0,33026.0
402,4105.8974609375,4107.5639648438,4095.7692871094,4101.0258789063,4107.1796875,4104.8715820313,4087.9487304688,4104.7436523438,4108.205078125,4105.0,4106.794921875,4110.1284179688,4108.205078125,4123.8461914063,53.0,33026.0
403,4100.384765625,4103.3334960938,4096.41015625,4100.2563476563,4106.41015625,4105.0,4089.2307128906,4101.2822265625,4105.8974609375,4105.6411132813,4107.0512695313,4109.1025390625,4110.0,4120.7690429688,54.0,33026.0
404,4103.4614257813,4105.1284179688,4098.4614257813,4103.4614257813,4105.1284179688,4105.384765625,4094.1025390625,4100.8974609375,4112.0512695313,4109.615234375,4116.41015625,4119.615234375,4120.1284179688,4128.0771484375,55.0,33026.0
405,4115.1284179688,4108.3334960938,4101.9228515625,4106.9228515625,4105.6411132813,4104.615234375,4093.3332519531,4105.7690429688,4118.4614257813,4109.4873046875,4128.4614257813,4130.2563476563,4125.2563476563,4147.1796875,56.0,33026.0
406,4116.5385742188,4103.4614257813,4104.1025390625,4104.4873046875,4104.3588867188,4106.0258789063,4095.3845214844,4108.9741210938,4122.1796875,4111.0258789063,4133.0771484375,4128.58984375,4124.8715820313,4155.0,57.0,33026.0
407,4110.2563476563,4100.0,4104.615234375,4099.1025390625,4104.615234375,4110.0,4103.7177734375,4108.4614257813,4123.9741210938,4118.58984375,4127.3076171875,4112.1796875,4123.8461914063,4142.6923828125,58.0,33026.0
408,4110.1284179688,4101.5385742188,4104.2309570313,4100.1284179688,4110.2563476563,4111.0258789063,4105.1284179688,4107.9487304688,4124.7436523438,4121.2822265625,4123.7177734375,4106.6665039063,4121.5385742188,4135.5126953125,59.0,33026.0
409,4113.3334960938,4098.58984375,4103.7177734375,4103.8461914063,4106.6665039063,4107.3076171875,4096.0258789063,4110.384765625,4123.7177734375,4115.6411132813,4127.9487304688,4120.384765625,4121.9228515625,4142.4360351563,60.0,33026.0
410,4111.5385742188,4094.7436523438,4099.1025390625,4099.3588867188,4093.9743652344,4104.7436523438,4090.1281738281,4106.2822265625,4117.0512695313,4109.3588867188,4129.3588867188,4122.5639648438,4125.8974609375,4144.2309570313,61.0,33026.0
411,4102.4360351563,4091.9230957031,4090.1281738281,4090.5129394531,4096.41015625,4108.8461914063,4095.0,4098.4614257813,4108.58984375,4107.9487304688,4120.384765625,4115.384765625,4119.4873046875,4133.205078125,62.0,33026.0
412,4098.3334960938,4092.3076171875,4091.6667480469,4093.205078125,4109.3588867188,4110.7690429688,4095.7692871094,4098.58984375,4106.41015625,4106.41015625,4112.0512695313,4135.8974609375,4111.0258789063,4128.0771484375,63.0,33026.0
413,4102.6923828125,4098.9741210938,4099.2309570313,4101.1538085938,4110.2563476563,4107.9487304688,4091.2819824219,4105.384765625,4111.41015625,4106.6665039063,4117.8203125,4168.0771484375,4115.2563476563,4136.0258789063,64.0,33026.0
414,4104.7436523438,4102.6923828125,4098.4614257813,4100.1284179688,4105.6411132813,4110.8974609375,4098.58984375,4107.5639648438,4113.3334960938,4109.8715820313,4123.205078125,4174.8715820313,4117.6923828125,4135.384765625,65.0,33026.0
415,4104.2309570313,4096.0258789063,4095.3845214844,4096.6665039063,4106.794921875,4114.4873046875,4105.1284179688,4103.7177734375,4108.205078125,4109.3588867188,4115.7690429688,4160.0,4110.8974609375,4123.9741210938,66.0,33026.0
416,4101.9228515625,4091.9230957031,4093.58984375,4096.794921875,4107.9487304688,4110.6411132813,4097.1796875,4101.5385742188,4105.7690429688,4107.0512695313,4112.1796875,4138.3334960938,4112.3076171875,4123.58984375,67.0,33026.0
417,4100.5126953125,4092.4357910156,4092.3076171875,4095.5129394531,4106.5385742188,4109.2309570313,4091.6667480469,4099.8715820313,4105.6411132813,4105.7690429688,4112.8203125,4120.2563476563,4120.7690429688,4127.4360351563,68.0,33026.0
418,4103.58984375,4092.1794433594,4094.3588867188,4091.6667480469,4105.8974609375,4112.3076171875,4094.3588867188,4097.3076171875,4104.1025390625,4106.1538085938,4109.615234375,4117.3076171875,4119.8715820313,4123.3334960938,69.0,33026.0
419,4105.5126953125,4097.5639648438,4097.4360351563,4093.3332519531,4106.0258789063,4110.8974609375,4092.9487304688,4098.58984375,4105.2563476563,4107.8203125,4113.4614257813,4121.0258789063,4119.615234375,4125.1284179688,70.0,33026.0
420,4103.3334960938,4100.2563476563,4095.3845214844,4098.0771484375,4107.9487304688,4110.5126953125,4090.8974609375,4101.5385742188,4109.1025390625,4111.0258789063,4120.5126953125,4112.9487304688,4124.2309570313,4127.1796875,71.0,33026.0
421,4100.8974609375,4092.8205566406,4088.205078125,4093.9743652344,4108.205078125,4114.1025390625,4093.4614257813,4103.7177734375,4110.7690429688,4115.384765625,4118.205078125,4102.8203125,4123.0771484375,4122.8203125,72.0,33026.0
422,4103.8461914063,4089.6154785156,4087.1794433594,4089.4870605469,4105.8974609375,4114.1025390625,4094.6154785156,4110.2563476563,4115.1284179688,4121.41015625,4122.0512695313,4116.1538085938,4127.6923828125,4128.4614257813,73.0,33026.0
423,4112.3076171875,4098.205078125,4096.794921875,4095.2563476563,4106.794921875,4112.9487304688,4094.4870605469,4118.8461914063,4123.58984375,4127.9487304688,4131.1538085938,4139.4873046875,4140.6411132813,4139.7436523438,74.0,33026.0
424,4117.5639648438,4106.41015625,4102.9487304688,4102.8203125,4110.2563476563,4115.0,4095.6411132813,4121.794921875,4126.5385742188,4127.5639648438,4126.6665039063,4138.9741210938,4137.9487304688,4141.41015625,75.0,33026.0
425,4116.0258789063,4101.6665039063,4099.8715820313,4099.3588867188,4108.205078125,4112.8203125,4096.1538085938,4119.4873046875,4125.6411132813,4123.7177734375,4117.8203125,4122.6923828125,4124.3588867188,4132.0512695313,76.0,33026.0
426,4108.205078125,4090.0,4095.1281738281,4090.1281738281,4104.2309570313,4108.0771484375,4095.0,4109.1025390625,4120.7690429688,4121.6665039063,4117.8203125,4115.6411132813,4122.6923828125,4124.8715820313,77.0,33026.0
427,4102.4360351563,4087.6923828125,4093.9743652344,4094.1025390625,4103.7177734375,4108.205078125,4091.1538085938,4096.2822265625,4110.7690429688,4119.615234375,4122.0512695313,4123.0771484375,4128.58984375,4129.2309570313,78.0,33026.0
428,4106.2822265625,4099.3588867188,4096.6665039063,4105.6411132813,4106.41015625,4108.205078125,4089.1025390625,4098.4614257813,4108.3334960938,4121.2822265625,4126.794921875,4135.7690429688,4135.7690429688,4139.7436523438,79.0,33026.0
429,4113.7177734375,4109.4873046875,4102.4360351563,4109.8715820313,4108.0771484375,4106.1538085938,4090.5129394531,4108.58984375,4113.0771484375,4125.384765625,4128.0771484375,4137.8203125,4140.2563476563,4143.4614257813,80.0,33026.0
430,4118.58984375,4108.9741210938,4106.0258789063,4108.3334960938,4101.794921875,4106.9228515625,4092.6923828125,4106.5385742188,4107.8203125,4122.3076171875,4121.2822265625,4123.58984375,4130.1284179688,4137.0512695313,81.0,33026.0
431,4118.205078125,4105.5126953125,4104.1025390625,4105.7690429688,4096.6665039063,4107.1796875,4092.9487304688,4103.3334960938,4104.3588867188,4117.9487304688,4116.794921875,4115.8974609375,4123.7177734375,4133.7177734375,82.0,33026.0
432,4116.1538085938,4101.794921875,4100.8974609375,4101.9228515625,4105.8974609375,4107.6923828125,4091.6667480469,4106.794921875,4118.0771484375,4123.205078125,4126.5385742188,4132.3076171875,4136.41015625,4140.5126953125,83.0,33026.0
433,4112.5639648438,4093.4614257813,4101.2822265625,4095.7692871094,4111.41015625,4110.6411132813,4094.1025390625,4108.205078125,4125.0,4127.5639648438,4134.1025390625,4139.615234375,4142.9487304688,4144.3588867188,84.0,33026.0
434,4110.8974609375,4089.1025390625,4098.0771484375,4092.5642089844,4102.8203125,4108.205078125,4095.2563476563,4109.2309570313,4114.615234375,4125.7690429688,4126.9228515625,4128.9741210938,4133.0771484375,4141.5385742188,85.0,33026.0
435,4113.4614257813,4092.5642089844,4092.8205566406,4090.2563476563,4101.5385742188,4106.1538085938,4093.7180175781,4105.0,4105.7690429688,4120.1284179688,4112.6923828125,4122.8203125,4124.615234375,4134.1025390625,86.0,33026.0
436,4108.0771484375,4095.7692871094,4093.0769042969,4091.1538085938,4104.3588867188,4110.2563476563,4090.5129394531,4095.0,4104.7436523438,4115.384765625,4107.8203125,4123.9741210938,4123.7177734375,4124.4873046875,87.0,33026.0
437,4103.9741210938,4100.6411132813,4098.8461914063,4100.5126953125,4100.2563476563,4105.5126953125,4083.4614257813,4091.9230957031,4106.6665039063,4120.1284179688,4117.3076171875,4128.205078125,4125.5126953125,4124.8715820313,88.0,33026.0
438,4111.2822265625,4111.794921875,4106.5385742188,4107.9487304688,4102.8203125,4096.794921875,4078.9743652344,4095.6411132813,4110.5126953125,4126.9228515625,4126.794921875,4140.7690429688,4132.1796875,4138.4614257813,89.0,33026.0
439,4119.1025390625,4121.6665039063,4111.1538085938,4110.5126953125,4108.3334960938,4100.2563476563,4079.1025390625,4096.5385742188,4113.3334960938,4125.0,4126.1538085938,4151.9228515625,4140.384765625,4144.3588867188,90.0,33026.0
440,4123.3334960938,4125.1284179688,4117.0512695313,4117.6923828125,4107.8203125,4107.3076171875,4076.6667480469,4092.9487304688,4111.1538085938,4122.6923828125,4123.205078125,4149.1025390625,4138.0771484375,4139.3588867188,91.0,33026.0
441,4124.1025390625,4121.2822265625,4118.0771484375,4120.8974609375,4110.0,4106.9228515625,4078.3332519531,4092.3076171875,4111.1538085938,4125.2563476563,4126.794921875,4142.3076171875,4129.4873046875,4138.8461914063,92.0,33026.0
442,4120.1284179688,4113.9741210938,4110.8974609375,4112.3076171875,4111.6665039063,4105.8974609375,4088.58984375,4098.58984375,4115.1284179688,4124.1025390625,4128.4614257813,4132.9487304688,4127.4360351563,4135.8974609375,93.0,33026.0
443,4111.0258789063,4109.615234375,4101.5385742188,4105.7690429688,4106.41015625,4106.5385742188,4092.0512695313,4099.4873046875,4111.1538085938,4120.8974609375,4118.58984375,4117.3076171875,4126.5385742188,4122.0512695313,94.0,33026.0
444,4102.9487304688,4108.205078125,4092.8205566406,4107.3076171875,4106.9228515625,4106.9228515625,4089.1025390625,4092.4357910156,4104.1025390625,4121.6665039063,4110.6411132813,4109.8715820313,4123.0771484375,4113.0771484375,95.0,33026.0
445,4100.8974609375,4105.2563476563,4091.0256347656,4106.0258789063,4105.8974609375,4107.4360351563,4090.6411132813,4095.3845214844,4109.7436523438,4122.8203125,4116.5385742188,4108.7177734375,4121.5385742188,4116.0258789063,96.0,33026.0
446,4102.6923828125,4104.7436523438,4094.4870605469,4103.205078125,4100.7690429688,4105.384765625,4093.3332519531,4105.6411132813,4119.8715820313,4123.4614257813,4124.1025390625,4107.9487304688,4122.9487304688,4122.8203125,97.0,33026.0
447,4106.1538085938,4109.3588867188,4095.5129394531,4105.5126953125,4107.1796875,4107.1796875,4095.8974609375,4112.4360351563,4123.9741210938,4126.2822265625,4122.9487304688,4113.3334960938,4130.2563476563,4128.58984375,98.0,33026.0
448,4111.41015625,4109.4873046875,4098.58984375,4107.9487304688,4114.8715820313,4113.205078125,4097.6923828125,4116.2822265625,4121.6665039063,4127.9487304688,4123.3334960938,4120.0,4134.1025390625,4134.4873046875,99.0,33026.0
449,4111.1538085938,4106.6665039063,4104.8715820313,4107.4360351563,4107.9487304688,4111.2822265625,4094.1025390625,4112.6923828125,4115.7690429688,4124.8715820313,4127.0512695313,4121.6665039063,4129.615234375,4137.3076171875,100.0,33026.0
450,4109.4873046875,4107.4360351563,4105.8974609375,4107.4360351563,4105.384765625,4106.1538085938,4093.9743652344,4105.1284179688,4115.5126953125,4125.384765625,4129.1025390625,4124.3588867188,4130.384765625,4138.3334960938,101.0,33026.0
451,4115.2563476563,4109.1025390625,4103.8461914063,4107.8203125,4111.794921875,4107.3076171875,4098.8461914063,4112.5639648438,4123.205078125,4134.2309570313,4134.615234375,4126.9228515625,4135.8974609375,4141.794921875,102.0,33026.0
452,4117.0512695313,4109.7436523438,4102.9487304688,4107.1796875,4111.41015625,4109.615234375,4101.5385742188,4125.384765625,4128.4614257813,4141.2822265625,4140.8974609375,4126.41015625,4137.9487304688,4143.0771484375,103.0,33026.0
453,4114.4873046875,4108.58984375,4101.2822265625,4105.384765625,4108.8461914063,4109.3588867188,4101.2822265625,4119.8715820313,4126.0258789063,4135.6411132813,4135.0,4125.384765625,4137.0512695313,4137.8203125,104.0,33026.0
454,4113.3334960938,4106.6665039063,4100.8974609375,4101.794921875,4110.0,4109.4873046875,4097.6923828125,4108.58984375,4121.2822265625,4125.0,4124.1025390625,4122.1796875,4130.7690429688,4133.205078125,105.0,33026.0
455,4116.1538085938,4108.3334960938,4102.9487304688,4101.41015625,4108.8461914063,4107.0512695313,4094.6154785156,4106.41015625,4117.9487304688,4121.6665039063,4122.8203125,4122.1796875,4124.8715820313,4136.41015625,106.0,33026.0
456,4122.0512695313,4111.5385742188,4104.4873046875,4105.384765625,4107.8203125,4107.6923828125,4099.4873046875,4108.58984375,4115.8974609375,4123.9741210938,4125.5126953125,4127.5639648438,4128.3334960938,4142.3076171875,107.0,33026.0
457,4119.4873046875,4111.794921875,4102.6923828125,4104.8715820313,4112.3076171875,4112.3076171875,4108.205078125,4108.4614257813,4113.7177734375,4125.2563476563,4123.8461914063,4122.0512695313,4128.0771484375,4142.6923828125,108.0,33026.0
458,4116.0258789063,4108.8461914063,4101.9228515625,4101.41015625,4111.0258789063,4110.5126953125,4104.2309570313,4105.8974609375,4109.4873046875,4122.8203125,4120.1284179688,4109.4873046875,4121.9228515625,4138.9741210938,109.0,33026.0
459,4118.8461914063,4111.0258789063,4101.794921875,4103.4614257813,4103.4614257813,4105.384765625,4096.5385742188,4111.1538085938,4111.1538085938,4120.1284179688,4114.2309570313,4109.615234375,4121.1538085938,4139.7436523438,110.0,33026.0
460,4119.7436523438,4120.6411132813,4101.41015625,4107.0512695313,4106.2822265625,4106.6665039063,4098.9741210938,4119.8715820313,4120.0,4123.7177734375,4108.7177734375,4109.3588867188,4118.7177734375,4140.384765625,111.0,33026.0
461,4116.41015625,4118.9741210938,4094.6154785156,4100.1284179688,4113.58984375,4115.1284179688,4106.0258789063,4117.4360351563,4120.6411132813,4120.5126953125,4101.41015625,4094.2307128906,4110.1284179688,4127.4360351563,112.0,33026.0
462,4113.58984375,4108.205078125,4085.5129394531,4091.1538085938,4115.2563476563,4123.9741210938,4111.6665039063,4109.7436523438,4111.794921875,4107.0512695313,4090.7692871094,4089.6154785156,4104.2309570313,4112.9487304688,113.0,33026.0
463,4113.7177734375,4108.7177734375,4087.6923828125,4093.205078125,4112.5639648438,4122.9487304688,4110.1284179688,4108.3334960938,4104.3588867188,4107.9487304688,4095.1281738281,4106.41015625,4108.8461914063,4115.384765625,114.0,33026.0
464,4107.5639648438,4110.2563476563,4088.8461914063,4095.6411132813,4108.8461914063,4113.0771484375,4106.41015625,4106.5385742188,4104.615234375,4122.3076171875,4112.9487304688,4113.0771484375,4118.9741210938,4120.384765625,115.0,33026.0
465,4107.8203125,4110.384765625,4088.9743652344,4095.0,4108.4614257813,4109.1025390625,4106.0258789063,4105.8974609375,4114.4873046875,4125.6411132813,4124.4873046875,4104.7436523438,4126.5385742188,4123.7177734375,116.0,33026.0
466,4120.0,4116.9228515625,4100.1284179688,4098.0771484375,4112.5639648438,4111.1538085938,4101.41015625,4110.1284179688,4120.2563476563,4122.3076171875,4127.5639648438,4108.0771484375,4128.8461914063,4133.9741210938,117.0,33026.0
467,4117.8203125,4114.3588867188,4099.4873046875,4096.6665039063,4109.615234375,4108.3334960938,4091.794921875,4105.2563476563,4109.3588867188,4121.6665039063,4122.6923828125,4108.58984375,4125.0,4132.8203125,118.0,33026.0
468,4103.3334960938,4102.6923828125,4086.0256347656,4088.9743652344,4102.5639648438,4104.7436523438,4090.8974609375,4098.8461914063,4105.5126953125,4119.615234375,4114.7436523438,4092.4357910156,4120.0,4120.7690429688,119.0,33026.0
469,4098.7177734375,4103.9741210938,4084.8718261719,4090.7692871094,4106.9228515625,4106.41015625,4094.4870605469,4107.4360351563,4122.6923828125,4121.794921875,4118.9741210938,4089.6154785156,4121.6665039063,4121.2822265625,120.0,33026.0
470,4103.205078125,4107.8203125,4090.6411132813,4094.3588867188,4112.0512695313,4111.0258789063,4095.5129394531,4113.7177734375,4126.2822265625,4126.2822265625,4125.6411132813,4100.6411132813,4124.4873046875,4123.205078125,121.0,33026.0
471,4104.8715820313,4104.4873046875,4089.7436523438,4089.7436523438,4109.8715820313,4113.7177734375,4102.5639648438,4110.2563476563,4119.1025390625,4123.8461914063,4122.3076171875,4099.2309570313,4124.615234375,4119.7436523438,122.0,33026.0
472,4101.41015625,4106.794921875,4087.8205566406,4088.9743652344,4108.4614257813,4110.5126953125,4103.7177734375,4109.615234375,4122.5639648438,4123.3334960938,4123.4614257813,4092.8205566406,4126.0258789063,4123.4614257813,123.0,33026.0
473,4101.2822265625,4106.794921875,4089.1025390625,4092.0512695313,4106.6665039063,4103.3334960938,4094.7436523438,4106.5385742188,4117.5639648438,4123.9741210938,4125.5126953125,4098.8461914063,4123.7177734375,4123.4614257813,124.0,33026.0
474,4104.7436523438,4102.3076171875,4093.8461914063,4093.0769042969,4105.8974609375,4102.1796875,4091.9230957031,4099.1025390625,4110.6411132813,4121.41015625,4121.6665039063,4105.5126953125,4123.205078125,4122.8203125,125.0,33026.0
475,4111.41015625,4112.6923828125,4098.58984375,4096.1538085938,4108.3334960938,4106.2822265625,4093.8461914063,4104.4873046875,4119.8715820313,4125.8974609375,4127.6923828125,4111.2822265625,4132.6923828125,4135.6411132813,126.0,33026.0
476,4114.1025390625,4122.0512695313,4100.384765625,4098.0771484375,4107.5639648438,4105.7690429688,4095.3845214844,4118.4614257813,4131.0258789063,4135.8974609375,4138.205078125,4114.8715820313,4138.9741210938,4143.4614257813,127.0,33026.0
477,4110.2563476563,4112.4360351563,4096.2822265625,4095.0,4106.794921875,4107.8203125,4104.3588867188,4123.8461914063,4137.5639648438,4139.615234375,4138.3334960938,4110.7690429688,4135.6411132813,4137.8203125,128.0,33026.0
478,4110.2563476563,4105.0,4090.7692871094,4093.4614257813,4109.615234375,4115.5126953125,4114.615234375,4123.3334960938,4139.615234375,4136.9228515625,4131.6665039063,4107.4360351563,4131.1538085938,4132.9487304688,129.0,33026.0
479,4111.41015625,4109.8715820313,4093.7180175781,4095.1281738281,4109.2309570313,4116.41015625,4113.4614257813,4118.9741210938,4129.7436523438,4129.7436523438,4125.2563476563,4102.6923828125,4125.7690429688,4127.3076171875,130.0,33026.0
480,4107.1796875,4107.6923828125,4097.5639648438,4094.3588867188,4109.3588867188,4112.1796875,4109.1025390625,4112.0512695313,4120.384765625,4122.0512695313,4123.58984375,4098.9741210938,4123.4614257813,4124.615234375,131.0,33026.0
481,4106.9228515625,4106.5385742188,4096.5385742188,4094.6154785156,4112.6923828125,4111.41015625,4108.0771484375,4108.8461914063,4124.1025390625,4122.0512695313,4125.6411132813,4109.7436523438,4126.5385742188,4134.2309570313,132.0,33026.0
482,4110.384765625,4118.58984375,4099.3588867188,4097.5639648438,4110.7690429688,4110.5126953125,4107.1796875,4107.9487304688,4128.3334960938,4126.6665039063,4126.794921875,4122.6923828125,4127.1796875,4141.794921875,133.0,33026.0
483,4110.0,4118.58984375,4102.4360351563,4095.0,4106.6665039063,4108.58984375,4103.205078125,4108.7177734375,4126.6665039063,4123.3334960938,4120.7690429688,4115.384765625,4124.615234375,4132.9487304688,134.0,33026.0
484,4105.5126953125,4107.6923828125,4097.5639648438,4088.58984375,4106.6665039063,4104.8715820313,4100.1284179688,4107.1796875,4117.5639648438,4114.1025390625,4109.1025390625,4104.1025390625,4118.58984375,4122.3076171875,135.0,33026.0
485,4106.0258789063,4108.3334960938,4093.7180175781,4089.2307128906,4106.41015625,4097.1796875,4098.4614257813,4100.8974609375,4110.1284179688,4113.0771484375,4104.615234375,4111.9228515625,4112.9487304688,4125.1284179688,136.0,33026.0
486,4108.7177734375,4113.205078125,4096.1538085938,4092.9487304688,4105.2563476563,4095.8974609375,4093.3332519531,4097.6923828125,4109.3588867188,4127.6923828125,4113.205078125,4120.7690429688,4114.8715820313,4128.205078125,137.0,33026.0
487,4104.7436523438,4115.384765625,4096.2822265625,4090.5129394531,4106.6665039063,4103.8461914063,4093.8461914063,4102.3076171875,4110.1284179688,4146.9228515625,4122.1796875,4122.6923828125,4121.2822265625,4125.384765625,138.0,33026.0
488,4107.1796875,4120.2563476563,4097.6923828125,4086.9230957031,4106.2822265625,4107.4360351563,4098.9741210938,4108.205078125,4115.0,4155.384765625,4122.9487304688,4136.9228515625,4124.1025390625,4130.0,139.0,33026.0
489,4117.5639648438,4121.794921875,4104.2309570313,4090.6411132813,4105.384765625,4104.7436523438,4094.3588867188,4107.4360351563,4118.58984375,4156.2822265625,4120.7690429688,4147.3076171875,4122.5639648438,4136.9228515625,140.0,33026.0
490,4115.0,4116.6665039063,4103.8461914063,4093.9743652344,4106.794921875,4105.1284179688,4088.4614257813,4099.4873046875,4110.8974609375,4150.6411132813,4114.4873046875,4125.2563476563,4118.4614257813,4129.7436523438,141.0,33026.0
491,4104.615234375,4110.8974609375,4093.58984375,4089.6154785156,4107.3076171875,4107.8203125,4096.9228515625,4090.1281738281,4102.0512695313,4139.3588867188,4100.1284179688,4093.7180175781,4107.1796875,4113.0771484375,142.0,33026.0
492,4098.4614257813,4106.794921875,4085.3845214844,4080.1281738281,4107.1796875,4107.5639648438,4102.4360351563,4090.7692871094,4104.3588867188,4137.8203125,4089.3588867188,4085.5129394531,4099.3588867188,4103.8461914063,143.0,33026.0
493,4096.794921875,4105.6411132813,4088.0769042969,4076.1538085938,4106.794921875,4105.2563476563,4096.6665039063,4095.3845214844,4107.1796875,4142.9487304688,4093.7180175781,4086.1538085938,4103.205078125,4105.1284179688,144.0,33026.0
494,4098.9741210938,4106.5385742188,4092.3076171875,4081.41015625,4106.2822265625,4103.9741210938,4093.3332519531,4091.0256347656,4102.1796875,4138.3334960938,4101.41015625,4084.4870605469,4106.41015625,4108.7177734375,145.0,33026.0
495,4102.1796875,4110.384765625,4094.8718261719,4088.3332519531,4105.7690429688,4103.58984375,4095.5129394531,4093.58984375,4104.1025390625,4138.58984375,4106.794921875,4089.2307128906,4105.2563476563,4112.1796875,146.0,33026.0
496,4104.615234375,4119.3588867188,4104.3588867188,4096.5385742188,4104.8715820313,4105.0,4099.7436523438,4105.7690429688,4115.0,4153.58984375,4116.5385742188,4093.205078125,4112.9487304688,4119.8715820313,147.0,33026.0
497,4104.8715820313,4123.9741210938,4107.8203125,4102.1796875,4105.384765625,4106.41015625,4102.3076171875,4104.8715820313,4116.5385742188,4156.794921875,4119.4873046875,4092.5642089844,4121.5385742188,4126.0258789063,148.0,33026.0
498,4103.9741210938,4116.6665039063,4100.6411132813,4098.205078125,4107.8203125,4105.6411132813,4098.7177734375,4091.9230957031,4105.384765625,4143.0771484375,4109.1025390625,4090.7692871094,4115.6411132813,4120.2563476563,149.0,33026.0
499,4102.9487304688,4108.4614257813,4098.3334960938,4091.5385742188,4108.205078125,4106.0258789063,4096.5385742188,4086.9230957031,4101.6665039063,4138.0771484375,4104.4873046875,4090.8974609375,4108.7177734375,4110.7690429688,150.0,33026.0
500,4098.205078125,4107.8203125,4096.6665039063,4089.3588867188,4106.41015625,4108.3334960938,4102.0512695313,4090.3845214844,4106.794921875,4146.9228515625,4107.5639648438,4090.3845214844,4111.5385742188,4110.0,151.0,33026.0
501,4098.8461914063,4115.0,4098.8461914063,4091.1538085938,4106.1538085938,4108.4614257813,4105.8974609375,4097.1796875,4112.1796875,4152.9487304688,4111.41015625,4088.3332519531,4116.794921875,4118.3334960938,152.0,33026.0
502,4107.9487304688,4123.9741210938,4109.2309570313,4095.6411132813,4107.8203125,4107.4360351563,4106.2822265625,4109.615234375,4122.8203125,4155.6411132813,4120.5126953125,4099.1025390625,4123.0771484375,4127.8203125,153.0,33026.0
503,4109.2309570313,4118.205078125,4109.1025390625,4095.7692871094,4110.6411132813,4108.58984375,4108.0771484375,4111.5385742188,4129.615234375,4158.58984375,4123.58984375,4108.4614257813,4122.8203125,4127.5639648438,154.0,33026.0
504,4098.58984375,4104.7436523438,4093.7180175781,4085.2563476563,4107.5639648438,4111.6665039063,4109.7436523438,4097.9487304688,4117.8203125,4151.5385742188,4105.8974609375,4097.1796875,4110.2563476563,4115.1284179688,155.0,33026.0
505,4094.4870605469,4103.3334960938,4088.7180175781,4079.3588867188,4098.3334960938,4106.0258789063,4107.3076171875,4095.3845214844,4109.8715820313,4142.6923828125,4093.4614257813,4087.1794433594,4103.9741210938,4105.7690429688,156.0,33026.0
506,4103.9741210938,4108.3334960938,4099.1025390625,4087.5642089844,4098.4614257813,4097.9487304688,4100.0,4104.8715820313,4119.3588867188,4145.8974609375,4102.1796875,4093.3332519531,4111.1538085938,4110.8974609375,157.0,33026.0
507,4106.2822265625,4106.9228515625,4099.1025390625,4091.9230957031,4105.2563476563,4102.3076171875,4098.0771484375,4102.0512695313,4120.5126953125,4147.3076171875,4105.0,4092.6923828125,4113.0771484375,4114.2309570313,158.0,33026.0
508,4100.384765625,4103.9741210938,4089.6154785156,4086.0256347656,4102.5639648438,4104.615234375,4099.1025390625,4091.9230957031,4107.8203125,4138.205078125,4093.9743652344,4087.1794433594,4106.2822265625,4108.3334960938,159.0,33026.0
509,4100.7690429688,4104.7436523438,4089.4870605469,4080.8974609375,4092.4357910156,4092.5642089844,4093.3332519531,4090.5129394531,4102.3076171875,4135.2563476563,4091.6667480469,4089.8718261719,4104.615234375,4106.9228515625,160.0,33026.0
